File: membrane conductivity analysis/EIS data/Book16.csv
PVDF0.2-3(3),,,,,,
freq / Hz,Log(f / Hz),neg. Phase / бу,Z / Ohm,Z' / Ohm,Z'' / Ohm,Log(Z / Ohm)
50000,4.69897,34.6398,4.40743,3.62617,2.50525,0.644185
43487.4,4.63836,35.8297,5.00904,4.06113,2.93218,0.6997545
37823.2,4.57776,38.3825,5.4066,4.23814,3.357,0.732924
32896.7,4.51715,36.612,6.61181,5.30725,3.94324,0.82032
28611.8,4.45655,33.0406,8.44955,7.08313,4.60697,0.926834
24885.1,4.39594,35.3325,8.90828,7.26746,5.15184,0.949794
21643.8,4.33533,38.5247,9.21971,7.21295,5.74251,0.964717
18824.7,4.27473,42.875,9.36772,6.86504,6.37381,0.971634
16372.7,4.21412,44.5991,10.1559,7.23135,7.13085,1.00672
14240.2,4.15352,45.815,11.116,7.74762,7.97123,1.04595
12385.4,4.09291,46.6332,12.2375,8.40305,8.89631,1.08769
10772.2,4.0323,49.1779,13.1071,8.56825,9.91867,1.11751
9369.09,3.9717,51.6385,14.0545,8.72253,11.0203,1.14782
8148.75,3.91109,52.5019,15.4705,9.41743,12.2739,1.1895
7087.37,3.85049,53.1915,17.042,10.2106,13.6446,1.23152
6164.23,3.78988,54.0885,18.6984,10.9673,15.1443,1.2718
5361.34,3.72927,54.8982,20.5383,11.8102,16.803,1.31256
4663.02,3.66867,55.6474,22.605,12.7557,18.6623,1.3542
4055.65,3.60806,56.2875,24.8691,13.803,20.687,1.39566
3527.4,3.54745,56.8493,27.3577,14.9604,22.9048,1.43708
3067.95,3.48685,57.6004,30.0194,16.085,25.3463,1.4774
2668.35,3.42624,58.3337,33.0268,17.3382,28.1098,1.51887
2320.79,3.36564,59.3037,36.1763,18.4676,31.1075,1.55842
2018.51,3.30503,59.7233,39.8835,20.1083,34.4434,1.60079
1755.6,3.24443,60.1372,43.9227,21.8702,38.0907,1.64269
1526.93,3.18382,60.6231,48.449,23.7668,42.219,1.68528
1328.04,3.12321,61.0129,53.4007,25.8787,46.7111,1.72755
1155.06,3.0626,61.3839,58.9488,28.2329,51.7482,1.77047
1004.62,3.002,61.7529,64.999,30.7624,57.2585,1.81291
873.764,2.94139,62.0726,71.4438,33.4608,63.1236,1.85396
759.956,2.88079,62.5789,79.1667,36.4583,70.272,1.89854
660.971,2.82018,62.8817,87.3579,39.8203,77.7544,1.9413
574.878,2.75958,63.1517,96.489,43.5773,86.088,1.98448
500,2.69897,63.4774,106.742,47.6659,95.5087,2.02834
434.875,2.63836,63.6941,118.088,52.3321,105.859,2.07221
378.232,2.57776,63.9797,130.394,57.2024,117.177,2.11526
328.967,2.51715,64.2381,143.817,62.5075,129.523,2.15781
286.118,2.45655,64.4655,159.032,68.5514,143.499,2.20148
248.851,2.39594,64.705,175.976,75.191,159.104,2.24545
216.438,2.33533,64.9272,194.62,82.4739,176.281,2.28919
188.247,2.27473,65.1466,215.31,90.4944,195.369,2.33306
163.727,2.21412,65.3374,238.038,99.3272,216.324,2.37665
142.402,2.15352,65.5747,263.913,109.13,240.293,2.42146
123.854,2.09291,65.7406,292.449,120.158,266.624,2.46605
107.722,2.0323,65.8951,323.782,132.235,295.548,2.51025
93.6909,1.9717,66.1236,359.727,145.605,328.942,2.55597
81.4875,1.91109,66.2071,398.234,160.66,364.388,2.60014
70.8737,1.85049,66.4097,441.625,176.736,404.719,2.64505
61.6423,1.78988,66.8155,489.969,192.897,450.4,2.69017
53.6134,1.72927,66.7674,545.015,214.989,500.82,2.73641
46.6302,1.66867,67.0247,604.944,236.131,556.956,2.78172
40.5565,1.60806,67.2121,672.628,260.523,620.126,2.82777
35.274,1.54745,67.4629,745.765,285.839,688.812,2.8726
30.6795,1.48685,67.7099,828.357,314.193,766.458,2.91822
26.6835,1.42624,67.9713,921.814,345.746,854.518,2.96464
23.2079,1.36564,68.2427,1025.91,380.279,952.823,3.01111
20.1851,1.30503,68.4785,1143.28,419.41,1063.57,3.05815
17.556,1.24443,68.7065,1271.87,461.874,1185.04,3.10444
15.2693,1.18382,68.9982,1416.69,507.738,1322.58,3.15127
13.2804,1.12321,69.2838,1577.32,557.96,1475.34,3.19792
11.5506,1.0626,69.5889,1760.14,613.853,1649.63,3.24555
10.0462,1.002,69.8779,1966.2,676.417,1846.19,3.29363
8.73764,0.941394,70.1858,2196.14,744.426,2066.12,3.34166
7.59956,0.880788,70.3994,2447.09,820.906,2305.29,3.38865
6.60971,0.820182,70.7277,2742.23,905.095,2588.56,3.4381
5.74879,0.759576,71.0318,3063.68,995.827,2897.32,3.48624
5,0.69897,71.3843,3429.05,1094.62,3249.65,3.53517
4.34874,0.638363,71.6657,3830.97,1205.07,3636.5,3.58331
3.78232,0.577758,72.0185,4292.34,1325.09,4082.68,3.63269
3.28967,0.517152,72.2434,4821.33,1470.38,4591.64,3.68317
2.86118,0.456545,72.5767,5388.05,1613.34,5140.83,3.73143
2.48851,0.395939,72.8587,6068.45,1788.55,5798.89,3.78308
2.16438,0.335334,73.1184,6788.37,1971.31,6495.84,3.83177
1.88247,0.274728,73.3034,7634.33,2193.37,7312.46,3.88277
1.63727,0.21412,73.9812,8373.99,2310.83,8048.84,3.92293
1.42402,0.153516,73.9394,9524.64,2635.02,9152.89,3.97885
1.23854,0.09291,73.932,10870.6,3008.76,10446,4.03625
1.07722,0.0323044,74.62,11911.1,3159.04,11484.5,4.07595
0.936909,-0.0283026,74.5646,13540.6,3603.85,13052.2,4.13164
0.814875,-0.088909,74.3357,15376.9,4151.75,14805.8,4.18687
0.708737,-0.149515,74.759,17137.3,4505.06,16534.6,4.23394
0.616423,-0.210121,74.9567,19282.9,5004.88,18622.1,4.28517
0.536134,-0.270727,75.1429,21787.1,5586.4,21058.7,4.3382
0.466302,-0.331333,75.2772,24649.8,6264.55,23840.4,4.39181
0.405565,-0.39194,75.623,27475.8,6822.25,26615.3,4.43895
0.35274,-0.452545,75.6947,31136.8,7693.55,30171.3,4.49327
0.306795,-0.513152,75.8272,35236.5,8627.55,34164,4.54699
0.266835,-0.573757,75.7979,39949.4,9801.3,38728.4,4.60151
0.232079,-0.634364,76.1507,44621.8,10681.1,43324.6,4.64955
0.201851,-0.694969,76.088,51124.3,12291.9,49624.6,4.70863
0.17556,-0.755574,75.9707,58314.2,14136.4,56574.8,4.76577
0.152693,-0.816181,76.2004,66294.7,15813.1,64381.1,4.82148
0.132804,-0.876789,76.2999,75305.7,17835.4,73163.2,4.87683
0.115506,-0.937395,76.258,86541.9,20558,84064.6,4.93723
0.100462,-0.997998,76.5329,98973.2,23049.6,96251.9,4.99552
0.0873764,-1.05861,76.2807,114950,27262.1,111670,5.06051
0.0759956,-1.11921,76.1368,137484,32941.8,133479,5.13825
0.0660971,-1.17982,75.355,176436,44608.3,170704,5.24659
0.0574878,-1.24042,109.37,1111570,-368680,1048650,6.04594
0.05,-1.30103,61.1096,4702120,2271760,4116920,6.67229