File: membrane conductivity analysis/EIS data/Book2.csv
Sartorius_CelluloseNitrate5-2(1),,,,,,
freq / Hz,Log(f / Hz),neg. Phase / бу,Z / Ohm,Z' / Ohm,Z'' / Ohm,Log(Z / Ohm)
50000,4.69897,55.3993,2.97879,1.69152,2.45193,0.47404
43487.4,4.63836,57.6403,3.40062,1.82013,2.87252,0.531558
37823.2,4.57776,57.3363,4.11189,2.21921,3.46161,0.614041
32896.7,4.51715,56.9501,4.89471,2.66942,4.10272,0.689727
28611.8,4.45655,56.8205,5.72377,3.13241,4.79057,0.757682
24885.1,4.39594,56.7623,6.55934,3.59526,5.48626,0.81686
21643.8,4.33533,56.7411,7.45105,4.08633,6.23058,0.872217
18824.7,4.27473,56.7799,8.38839,4.59564,7.01749,0.923679
16372.7,4.21412,56.8088,9.41147,5.15217,7.87597,0.973657
14240.2,4.15352,56.8943,10.4826,5.72547,8.78094,1.02047
12385.4,4.09291,57.0943,11.6399,6.32349,9.7725,1.06595
10772.2,4.0323,57.3762,12.9024,6.95594,10.8667,1.11067
9369.09,3.9717,57.744,14.2367,7.59817,12.0396,1.15341
8148.75,3.91109,58.0155,15.7368,8.33563,13.3478,1.19692
7087.37,3.85049,58.2161,17.3786,9.15361,14.7725,1.24001
6164.23,3.78988,58.3945,19.1515,10.0367,16.3109,1.2822
5361.34,3.72927,58.6717,21.1156,10.9789,18.037,1.3246
4663.02,3.66867,58.9388,23.255,11.9985,19.9206,1.36652
4055.65,3.60806,59.0961,25.6292,13.1632,21.9907,1.40874
3527.4,3.54745,59.3368,28.1939,14.3786,24.2518,1.45016
3067.95,3.48685,59.5315,31.0454,15.742,26.7583,1.492
2668.35,3.42624,59.7616,34.1632,17.2046,29.5149,1.53356
2320.79,3.36564,60.0192,37.6081,18.7931,32.5759,1.57528
2018.51,3.30503,60.1501,41.4129,20.6124,35.9188,1.61714
1755.6,3.24443,60.4128,45.6495,22.5393,39.697,1.65944
1526.93,3.18382,60.6093,50.2598,24.6656,43.791,1.70122
1328.04,3.12321,60.8663,55.3877,26.9655,48.3804,1.74341
1155.06,3.0626,61.1219,60.9666,29.4437,53.3854,1.78509
1004.62,3.002,61.3804,67.2956,32.2341,59.0734,1.82799
873.764,2.94139,61.5569,73.8099,35.1546,64.9004,1.86811
759.956,2.88079,61.6264,81.7536,38.8509,71.9323,1.91251
660.971,2.82018,61.8029,90.1335,42.5886,79.4371,1.95489
574.878,2.75958,62.082,99.3305,46.5074,87.7703,1.99708
500,2.69897,62.2584,109.425,50.9355,96.8469,2.03912
434.875,2.63836,62.47,120.915,55.8885,107.223,2.08248
378.232,2.57776,62.6843,133.301,61.1711,118.437,2.12483
328.967,2.51715,62.831,147.265,67.2438,131.017,2.1681
286.118,2.45655,63.0021,162.696,73.8572,144.966,2.21138
248.851,2.39594,63.1923,179.822,81.0991,160.495,2.25484
216.438,2.33533,63.3676,198.886,89.1534,177.784,2.2986
188.247,2.27473,63.5248,219.922,98.0435,196.858,2.34227
163.727,2.21412,63.6904,243.062,107.731,217.884,2.38572
142.402,2.15352,63.8246,268.243,118.328,240.735,2.42853
123.854,2.09291,63.9519,297.316,130.559,267.116,2.47322
107.722,2.0323,64.2158,328.994,143.106,296.239,2.51719
93.6909,1.9717,64.4076,364.107,157.282,328.384,2.56123
81.4875,1.91109,64.4508,403.104,173.853,363.686,2.60542
70.8737,1.85049,64.6201,446.053,191.186,403.003,2.64939
61.6423,1.78988,64.9763,492.185,208.191,445.985,2.69213
53.6134,1.72927,65.1059,546.988,230.251,496.166,2.73798
46.6302,1.66867,65.2009,606.193,254.26,550.293,2.78261
40.5565,1.60806,65.4028,671.652,279.566,610.704,2.82714
35.274,1.54745,65.6689,743.543,306.347,677.501,2.87131
30.6795,1.48685,65.8976,822.814,336.011,751.079,2.9153
26.6835,1.42624,66.1598,913.712,369.311,835.751,2.96081
23.2079,1.36564,66.3973,1014.05,406.017,929.218,3.00606
20.1851,1.30503,66.6862,1126.72,445.92,1034.73,3.05182
17.556,1.24443,66.9623,1249.38,488.926,1149.73,3.09669
15.2693,1.18382,67.2514,1386.56,536.168,1278.7,3.14194
13.2804,1.12321,67.5771,1539.13,587.087,1422.77,3.18728
11.5506,1.0626,67.9145,1712.43,643.857,1586.78,3.23361
10.0462,1.002,68.2314,1909.68,708.223,1773.5,3.28096
8.73764,0.941394,68.5994,2122.62,774.516,1976.27,3.32687
7.59956,0.880788,68.8279,2363.65,853.68,2204.1,3.37358
6.60971,0.820182,69.2362,2638.6,935.425,2467.22,3.42137
5.74879,0.759576,69.6636,2937.85,1021,2754.73,3.46803
5,0.69897,70.0114,3289.86,1124.59,3091.68,3.51718
4.34874,0.638363,70.3921,3666.16,1230.29,3453.57,3.56421
3.78232,0.577758,70.7432,4110.36,1355.61,3880.38,3.61388
3.28967,0.517152,71.0071,4605.88,1498.99,4355.13,3.66331
2.86118,0.456545,71.5044,5139.9,1630.54,4874.41,3.71095
2.48851,0.395939,71.8301,5772.16,1799.96,5484.34,3.76134
2.16438,0.335334,72.1819,6442.97,1971.53,6133.91,3.80909
1.88247,0.274728,72.7861,7118.79,2106.74,6799.91,3.85241
1.63727,0.21412,72.8096,8057.07,2381.24,7697.14,3.90618
1.42402,0.153516,73.1102,9031.12,2623.83,8641.57,3.95574
1.23854,0.09291,73.0835,10336.7,3007.76,9889.47,4.01438
1.07722,0.0323044,73.573,11416.1,3228.41,10950.2,4.05752
0.936909,-0.0283026,74.0099,12661.7,3487.95,12171.8,4.10249
0.814875,-0.088909,73.5361,14488.5,4106.2,13894.5,4.16102
0.708737,-0.149515,73.9481,16131.6,4460.51,15502.7,4.20768
0.616423,-0.210121,74.0225,18279.4,5031.58,17573.2,4.26196
0.536134,-0.270727,74.1722,20664,5636.04,19880.5,4.31521
0.466302,-0.331333,74.4741,23143,6194.77,22298.5,4.36442
0.405565,-0.39194,74.5587,26156.5,6964.2,25212.4,4.41758
0.35274,-0.452545,74.7173,29393.7,7747.63,28354.3,4.46825
0.306795,-0.513152,74.7612,33313,8756.06,32141.6,4.52261
0.266835,-0.573757,75.0864,37132.5,9556.49,35881.7,4.56975
0.232079,-0.634364,74.8893,42567.7,11096.8,41095.9,4.62908
0.201851,-0.694969,75.1113,47732.2,12264.4,46129.7,4.67881
0.17556,-0.755574,75.7771,52162.1,12816,50563.1,4.71736
0.152693,-0.816181,75.0346,61330.2,15837.6,59250,4.78767
0.132804,-0.876789,75.2067,69093.8,17641.9,66803.6,4.83944
0.115506,-0.937395,75.0903,78870.1,20293,76214.8,4.89691
0.100462,-0.997998,74.9775,90342.8,23416.7,87255.2,4.95589
0.0873764,-1.05861,75.0532,102946,26552.1,99463.1,5.01261
0.0759956,-1.11921,74.6781,119288,31520.9,115048,5.0766
0.0660971,-1.17982,74.5791,138527,36835.6,133540,5.14153
0.0574878,-1.24042,74.128,162826,44531.2,156619,5.21172
0.05,-1.30103,73.3156,204370,58674.9,195767,5.31042