File: membrane conductivity analysis/EIS data/Book5.csv
Sartorius_CelluloseNitrate0.45-2(2),,,,,,
freq / Hz,Log(f / Hz),neg. Phase / бу,Z / Ohm,Z' / Ohm,Z'' / Ohm,Log(Z / Ohm)
50000,4.69897,37.0091,2.61532,2.08843,1.57427,0.417525
43487.4,4.63836,40.966,2.59368,1.95848,1.70044,0.413916
37823.2,4.57776,42.1723,2.89593,2.14626,1.94422,0.461788
32896.7,4.51715,43.2888,3.23066,2.35162,2.21519,0.509291
28611.8,4.45655,44.3325,3.60802,2.5808,2.52136,0.557269
24885.1,4.39594,44.7187,4.0787,2.8982,2.86988,0.610522
21643.8,4.33533,45.5777,4.50743,3.15493,3.21921,0.653929
18824.7,4.27473,46.4018,4.984,3.43696,3.60938,0.697578
16372.7,4.21412,47.0311,5.48329,3.73742,4.01226,0.739041
14240.2,4.15352,47.4792,6.042,4.08353,4.45315,0.781181
12385.4,4.09291,48.3115,6.60238,4.39111,4.93048,0.819701
10772.2,4.0323,48.9684,7.25156,4.76047,5.47019,0.860431
9369.09,3.9717,49.5049,7.93812,5.15489,6.03663,0.899718
8148.75,3.91109,50.0102,8.67532,5.5752,6.64668,0.938286
7087.37,3.85049,50.5186,9.46785,6.01992,7.30758,0.976251
6164.23,3.78988,50.9694,10.3339,6.50761,8.02745,1.01426
5361.34,3.72927,51.4739,11.2724,7.02126,8.81869,1.05202
4663.02,3.66867,51.9265,12.2685,7.56566,9.65802,1.08879
4055.65,3.60806,52.3155,13.3556,8.16444,10.5695,1.12566
3527.4,3.54745,52.7133,14.5453,8.8116,11.5724,1.16272
3067.95,3.48685,53.1951,15.9004,9.52581,12.7311,1.20141
2668.35,3.42624,53.6434,17.4449,10.3415,14.0491,1.24167
2320.79,3.36564,54.0351,19.0146,11.1671,15.39,1.27909
2018.51,3.30503,54.4422,20.7773,12.0825,16.9029,1.31759
1755.6,3.24443,54.7914,22.6601,13.0648,18.5146,1.35526
1526.93,3.18382,55.1329,24.7023,14.1217,20.2677,1.39274
1328.04,3.12321,55.5154,26.9596,15.2641,22.2222,1.43071
1155.06,3.0626,55.8803,29.4245,16.5049,24.3596,1.46871
1004.62,3.002,56.132,32.1011,17.8894,26.6543,1.50652
873.764,2.94139,56.4621,35.0108,19.3431,29.1822,1.5442
759.956,2.88079,56.7902,38.2812,20.9669,32.0287,1.58299
660.971,2.82018,57.0196,41.89,22.8029,35.1397,1.62211
574.878,2.75958,57.3567,45.8305,24.7213,38.5914,1.66115
500,2.69897,57.6126,50.0943,26.8326,42.3019,1.69979
434.875,2.63836,57.9103,54.817,29.1213,46.442,1.73892
378.232,2.57776,58.1748,59.9727,31.6254,50.9565,1.77795
328.967,2.51715,58.4214,65.6704,34.3894,55.9461,1.81737
286.118,2.45655,58.65,71.934,37.4247,61.432,1.85693
248.851,2.39594,58.907,78.8308,40.7105,67.5052,1.8967
216.438,2.33533,59.1747,87.1472,44.6562,74.8362,1.94025
188.247,2.27473,59.4011,96.0226,48.8779,82.6516,1.98237
163.727,2.21412,59.6456,105.685,53.4078,91.1976,2.02401
142.402,2.15352,59.8568,116.406,58.4547,100.664,2.06598
123.854,2.09291,60.0288,128.26,64.0743,111.109,2.10809
107.722,2.0323,60.2397,141.562,70.2674,122.891,2.15095
93.6909,1.9717,60.4353,156.438,77.1877,136.07,2.19434
81.4875,1.91109,60.5946,172.501,84.6956,150.278,2.23679
70.8737,1.85049,60.8747,192.579,93.7324,168.229,2.28461
61.6423,1.78988,61.219,214.855,103.445,188.313,2.33215
53.6134,1.72927,61.3476,237.961,114.101,208.821,2.37651
46.6302,1.66867,61.5816,261.796,124.591,230.249,2.41796
40.5565,1.60806,61.7946,287.872,136.058,253.689,2.4592
35.274,1.54745,62.0214,316.78,148.615,279.756,2.50076
30.6795,1.48685,62.248,350.153,163.047,309.875,2.54426
26.6835,1.42624,62.5231,387.894,178.971,344.138,2.58871
23.2079,1.36564,62.7815,434.549,198.756,386.431,2.63804
20.1851,1.30503,63.0776,488.351,221.117,435.423,2.68873
17.556,1.24443,63.3105,557.683,250.487,498.264,2.74639
15.2693,1.18382,63.5098,642.693,286.67,575.217,2.808
13.2804,1.12321,63.6779,729.538,323.489,653.896,2.86305
11.5506,1.0626,63.8953,814.161,358.242,731.11,2.91071
10.0462,1.002,64.1456,912.319,397.85,821,2.96015
8.73764,0.941394,64.3803,1022.61,442.171,922.071,3.00971
7.59956,0.880788,64.6236,1170.08,501.451,1057.18,3.06822
6.60971,0.820182,64.6562,1343.21,574.96,1213.94,3.12814
5.74879,0.759576,64.856,1535.71,652.517,1390.19,3.18631
5,0.69897,65.0851,1767.56,744.625,1603.06,3.24737
4.34874,0.638363,65.2304,2003.14,839.257,1818.85,3.30171
3.78232,0.577758,65.4528,2282.44,948.222,2076.15,3.3584
3.28967,0.517152,65.6732,2545.96,1048.79,2319.9,3.40585
2.86118,0.456545,65.8183,2863.35,1172.92,2612.1,3.45687
2.48851,0.395939,65.9939,3207.57,1304.95,2930.12,3.50618
2.16438,0.335334,66.1049,3748.68,1518.46,3427.38,3.57388
1.88247,0.274728,66.0813,4311.95,1748.24,3941.65,3.63467
1.63727,0.21412,66.4268,4756.38,1902.18,4359.46,3.67728
1.42402,0.153516,66.3242,5301.73,2128.97,4855.5,3.72442
1.23854,0.09291,66.3217,5893.59,2366.87,5397.44,3.77038
1.07722,0.0323044,66.1735,6553.14,2647.26,5994.63,3.81645
0.936909,-0.0283026,66.2724,7341.69,2954.21,6721.09,3.8658
0.814875,-0.088909,65.5502,8264.54,3420.66,7523.41,3.91722
0.708737,-0.149515,65.4929,9281.09,3849.85,8444.96,3.9676
0.616423,-0.210121,65.3745,10406.8,4336.36,9460.29,4.01732
0.536134,-0.270727,65.0319,11786.5,4975.22,10684.9,4.07138
0.466302,-0.331333,64.8234,13318.9,5665.97,12053.6,4.12447
0.405565,-0.39194,64.4439,14796.7,6383.23,13349.1,4.17016
0.35274,-0.452545,63.9097,16360.3,7195.06,14693.2,4.21379
0.306795,-0.513152,63.1491,18231.3,8234.56,16265.7,4.26082
0.266835,-0.573757,62.7052,20015.7,9178.58,17787.1,4.30137
0.232079,-0.634364,59.7975,23323.5,11733.1,20157.4,4.36779
0.201851,-0.694969,62.2764,32874.4,15293.4,29100.5,4.51686
0.17556,-0.755574,60.0816,38143.8,19024.9,33060.6,4.58142
0.152693,-0.816181,58.5636,42000.3,21905.4,35835.5,4.62325
0.132804,-0.876789,52.7246,45219,27386.8,35982.3,4.65532
0.115506,-0.937395,52.0887,51806.9,31832.3,40873.7,4.71439
0.100462,-0.997998,48.7879,55647.2,36663.1,41862,4.74544
0.0873764,-1.05861,46.313,60546.3,41820.5,43782.5,4.78209
0.0759956,-1.11921,47.3944,87275.2,59080.7,64237.3,4.94089
0.0660971,-1.17982,41.4315,95849.7,71863,63426,4.98159
0.0574878,-1.24042,45.4738,142407,99860.9,101526,5.15353
0.05,-1.30103,20.5901,132991,124496,46770.2,5.12382