File: membrane conductivity analysis/EIS data/Book7.csv
PW-3,,,,,,
freq / Hz,Log(f / Hz),neg. Phase / бу,Z / Ohm,Z' / Ohm,Z'' / Ohm,Log(Z / Ohm)
50000,4.69897,12.455,13.497,13.1793,2.91094,1.13024
43487.4,4.63836,13.0816,13.8704,13.5105,3.13941,1.14209
37823.2,4.57776,13.7445,14.1364,13.7316,3.35871,1.15034
32896.7,4.51715,14.5167,14.2171,13.7632,3.56369,1.15281
28611.8,4.45655,15.2601,14.4106,13.9025,3.7929,1.15868
24885.1,4.39594,15.2155,15.4588,14.9169,4.05717,1.18918
21643.8,4.33533,15.9183,15.7047,15.1025,4.30728,1.19603
18824.7,4.27473,16.588,16.0415,15.3739,4.57965,1.20524
16372.7,4.21412,17.2124,16.5023,15.7632,4.88327,1.21754
14240.2,4.15352,18.1716,16.7126,15.8791,5.21206,1.22304
12385.4,4.09291,19.1021,17.0233,16.0859,5.57091,1.23104
10772.2,4.0323,19.928,17.5338,16.4839,5.97621,1.24388
9369.09,3.9717,20.7913,18.0985,16.9199,6.42433,1.25764
8148.75,3.91109,21.6832,18.7064,17.3827,6.91153,1.27199
7087.37,3.85049,22.5716,19.3704,17.8866,7.43508,1.28714
6164.23,3.78988,23.5017,20.093,18.4262,8.01259,1.30304
5361.34,3.72927,24.4636,20.8514,18.9794,8.63487,1.31914
4663.02,3.66867,25.4909,21.6933,19.5815,9.33611,1.33633
4055.65,3.60806,26.4873,22.6243,20.2495,10.0904,1.35458
3527.4,3.54745,27.4849,23.6035,20.9394,10.8933,1.37298
3067.95,3.48685,28.4967,24.7252,21.7296,11.7966,1.39314
2668.35,3.42624,29.5487,25.8695,22.5048,12.7579,1.41279
2320.79,3.36564,30.5956,27.1821,23.3979,13.835,1.43428
2018.51,3.30503,31.6454,28.582,24.3322,14.9959,1.45609
1755.6,3.24443,32.5842,30.1202,25.3793,16.2209,1.47886
1526.93,3.18382,33.6176,31.7528,26.4422,17.5798,1.50178
1328.04,3.12321,34.5415,33.5732,27.6547,19.0361,1.52599
1155.06,3.0626,35.4238,35.5629,28.9797,20.613,1.551
1004.62,3.002,36.3368,37.7261,30.3901,22.3539,1.57664
873.764,2.94139,37.1983,40.103,31.944,24.2453,1.60318
759.956,2.88079,37.9636,42.6074,33.5917,26.2104,1.62949
660.971,2.82018,38.7608,45.4122,35.4109,28.4313,1.65717
574.878,2.75958,39.442,48.4201,37.3933,30.7611,1.68503
500,2.69897,40.0261,51.6909,39.5824,33.2443,1.71341
434.875,2.63836,40.603,55.2787,41.9696,35.9762,1.74256
378.232,2.57776,41.1576,59.088,44.4875,38.8877,1.7715
328.967,2.51715,41.6398,63.2766,47.289,42.0438,1.80124
286.118,2.45655,42.0784,67.7009,50.2495,45.3696,1.83059
248.851,2.39594,42.428,72.5024,53.5159,48.9147,1.86035
216.438,2.33533,42.7622,77.665,57.02,52.7312,1.89023
188.247,2.27473,43.0467,83.208,60.8083,56.7973,1.92017
163.727,2.21412,43.2536,89.1527,64.9324,61.09,1.95013
142.402,2.15352,43.5189,95.5334,69.2758,65.7837,1.98016
123.854,2.09291,43.6578,102.405,74.0873,70.695,2.01032
107.722,2.0323,43.8076,109.589,79.0867,75.8616,2.03977
93.6909,1.9717,43.9457,117.556,84.6399,81.5809,2.07024
81.4875,1.91109,43.9155,125.857,90.6626,87.294,2.09988
70.8737,1.85049,44.0692,134.794,96.8492,93.7525,2.12967
61.6423,1.78988,44.2081,144.175,103.347,100.529,2.15889
53.6134,1.72927,44.3234,154.562,110.575,107.994,2.1891
46.6302,1.66867,44.4284,165.439,118.144,115.81,2.21864
40.5565,1.60806,44.5846,177.108,126.139,124.323,2.24824
35.274,1.54745,44.7251,189.18,134.41,133.127,2.27688
30.6795,1.48685,44.8882,202.281,143.313,142.755,2.30596
26.6835,1.42624,45.0492,216.542,152.986,153.25,2.33554
23.2079,1.36564,45.3024,231.92,163.125,164.856,2.36534
20.1851,1.30503,45.517,248.434,174.077,177.247,2.39521
17.556,1.24443,45.7173,265.912,185.66,190.368,2.42474
15.2693,1.18382,45.99,284.721,197.819,204.777,2.45442
13.2804,1.12321,46.2345,305.048,211.004,220.298,2.48437
11.5506,1.0626,46.5042,327.274,225.263,237.413,2.51491
10.0462,1.002,46.8305,351.23,240.297,256.164,2.54559
8.73764,0.941394,47.1265,376.994,256.5,276.283,2.57633
7.59956,0.880788,47.3719,404.472,273.923,297.596,2.60689
6.60971,0.820182,47.8623,436.024,292.535,323.327,2.63951
5.74879,0.759576,48.122,467.132,311.833,347.812,2.66944
5,0.69897,48.4881,503.239,333.535,376.835,2.70177
4.34874,0.638363,48.9343,541.193,355.523,408.036,2.73335
3.78232,0.577758,49.3954,583.259,379.605,442.821,2.76586
3.28967,0.517152,49.7865,629.197,406.233,480.483,2.79879
2.86118,0.456545,50.2139,679.566,434.87,522.205,2.83223
2.48851,0.395939,50.6038,736.153,467.222,568.881,2.86697
2.16438,0.335334,51.0335,795.948,500.544,618.861,2.90088
1.88247,0.274728,51.5157,860.081,535.229,673.253,2.93454
1.63727,0.21412,51.6805,933.822,579.013,732.644,2.97026
1.42402,0.153516,52.0862,1011.91,621.795,798.335,3.00514
1.23854,0.09291,52.3966,1102.31,672.621,873.31,3.0423
1.07722,0.0323044,52.4956,1204.95,733.603,955.898,3.08097
0.936909,-0.0283026,52.949,1305.07,786.339,1041.58,3.11563
0.814875,-0.088909,52.685,1421.86,861.925,1130.82,3.15286
0.708737,-0.149515,52.4551,1552.13,945.843,1230.65,3.19093
0.616423,-0.210121,52.4257,1691.59,1031.51,1340.69,3.2283
0.536134,-0.270727,52.4385,1848.14,1126.65,1465.02,3.26673
0.466302,-0.331333,52.0788,2021.39,1242.3,1594.58,3.30565
0.405565,-0.39194,52.2863,2202.85,1347.52,1742.62,3.34298
0.35274,-0.452545,51.4061,2397.26,1495.4,1873.66,3.37972
0.306795,-0.513152,51.1275,2611.23,1638.78,2032.96,3.41685
0.266835,-0.573757,50.498,2841.11,1807.25,2192.21,3.45349
0.232079,-0.634364,49.6966,3094,2001.3,2359.58,3.49052
0.201851,-0.694969,48.8395,3362.95,2213.4,2531.86,3.52672
0.17556,-0.755574,47.7778,3644.46,2449.1,2698.88,3.56163
0.152693,-0.816181,46.6814,3935.33,2699.85,2863.15,3.59498
0.132804,-0.876789,45.803,4263.07,2971.9,3056.4,3.62972
0.115506,-0.937395,44.1505,4574.79,3282.47,3186.55,3.66037
0.100462,-0.997998,42.7614,4908.98,3604.11,3332.94,3.69099
0.0873764,-1.05861,41.2272,5293.13,3980.97,3488.42,3.72371
0.0759956,-1.11921,39.4451,5682.33,4388.09,3610.21,3.75453
0.0660971,-1.17982,37.7758,6031.31,4767.22,3694.62,3.78041
0.0574878,-1.24042,35.8539,6430.89,5212.32,3766.7,3.80827
0.05,-1.30103,34.2572,6802.35,5622.27,3829.1,3.83266