File: membrane conductivity analysis/EIS data/Book10.csv
PVDF5-3(6),,,,,,
freq / Hz,Log(f / Hz),neg. Phase / бу,Z / Ohm,Z' / Ohm,Z'' / Ohm,Log(Z / Ohm)
50000,4.69897,38.7896,3.1147,2.42776,1.95124,0.493416
43487.4,4.63836,40.1968,3.50343,2.67603,2.26117,0.544493
37823.2,4.57776,40.5925,4.08009,3.09825,2.65481,0.61067
32896.7,4.51715,42.2072,4.54738,3.36833,3.05499,0.657761
28611.8,4.45655,43.683,5.07103,3.66723,3.5024,0.705096
24885.1,4.39594,45.1088,5.62084,3.96698,3.98207,0.749801
21643.8,4.33533,46.4259,6.23244,4.29597,4.5153,0.794658
18824.7,4.27473,47.2114,6.94278,4.7162,5.09506,0.841533
16372.7,4.21412,48.3031,7.65608,5.09274,5.7166,0.884006
14240.2,4.15352,49.423,8.43401,5.48607,6.4059,0.926034
12385.4,4.09291,50.436,9.26754,5.90287,7.14447,0.966964
10772.2,4.0323,51.3454,10.199,6.37056,7.96468,1.00856
9369.09,3.9717,52.2092,11.2273,6.87988,8.87241,1.05028
8148.75,3.91109,52.9973,12.3483,7.43184,9.86143,1.09161
7087.37,3.85049,53.736,13.5849,8.03559,10.9535,1.13306
6164.23,3.78988,54.3967,14.9325,8.69327,12.1411,1.17413
5361.34,3.72927,55.1112,16.4216,9.39292,13.47,1.21542
4663.02,3.66867,55.8608,18.0324,10.1199,14.925,1.25605
4055.65,3.60806,56.463,19.8318,10.9566,16.5304,1.29736
3527.4,3.54745,57.0467,21.8375,11.8786,18.3242,1.3392
3067.95,3.48685,57.5801,23.9738,12.8528,20.2373,1.37974
2668.35,3.42624,58.1747,26.3895,13.916,22.4221,1.42143
2320.79,3.36564,58.6447,29.0715,15.1272,24.8259,1.46347
2018.51,3.30503,59.1617,32.0136,16.4107,27.4874,1.50533
1755.6,3.24443,59.6393,35.2928,17.8385,30.4528,1.54769
1526.93,3.18382,60.0631,38.9057,19.4158,33.7147,1.59001
1328.04,3.12321,60.4652,42.8388,21.1175,37.2722,1.63184
1155.06,3.0626,60.9851,47.3213,22.9526,41.3822,1.67506
1004.62,3.002,61.2897,52.2041,25.0779,45.7862,1.7177
873.764,2.94139,61.7424,57.68,27.3078,50.8061,1.76103
759.956,2.88079,62.0557,63.6971,29.8493,56.2703,1.80412
660.971,2.82018,62.4491,70.4384,32.5803,62.4507,1.84781
574.878,2.75958,62.8024,77.8272,35.5718,69.2223,1.89113
500,2.69897,63.071,85.938,38.92,76.6196,1.93419
434.875,2.63836,63.3568,95.1555,42.6708,85.0515,1.97843
378.232,2.57776,63.6567,105.275,46.7157,94.3426,2.02233
328.967,2.51715,63.93,116.643,51.2607,104.775,2.06686
286.118,2.45655,64.19,128.999,56.1648,116.131,2.11059
248.851,2.39594,64.3871,143.043,61.8359,128.987,2.15547
216.438,2.33533,64.6488,158.477,67.8545,143.216,2.19997
188.247,2.27473,64.8417,175.711,74.6984,159.042,2.2448
163.727,2.21412,65.1128,194.808,81.9816,176.717,2.28961
142.402,2.15352,65.3057,216.07,90.269,196.31,2.33459
123.854,2.09291,65.5435,239.749,99.2564,218.237,2.37976
107.722,2.0323,65.7404,265.993,109.289,242.504,2.42487
93.6909,1.9717,65.9873,295.133,120.101,269.591,2.47002
81.4875,1.91109,66.0637,327.758,132.978,299.57,2.51555
70.8737,1.85049,66.3331,363.804,146.038,333.206,2.56087
61.6423,1.78988,66.4457,404.971,161.833,371.229,2.60742
53.6134,1.72927,66.7465,449.124,177.314,412.64,2.65237
46.6302,1.66867,67.0615,499.017,194.488,459.556,2.69812
40.5565,1.60806,67.3417,554.595,213.649,511.791,2.74398
35.274,1.54745,67.5958,615.667,234.654,569.196,2.78935
30.6795,1.48685,67.8293,683.908,258.085,633.342,2.835
26.6835,1.42624,68.1257,761.778,283.817,706.933,2.88183
23.2079,1.36564,68.4436,848.511,311.757,789.163,2.92866
20.1851,1.30503,68.7978,946.495,342.309,882.427,2.97612
17.556,1.24443,69.0902,1052.42,375.607,983.113,3.02219
15.2693,1.18382,69.4843,1173.08,411.12,1098.67,3.06933
13.2804,1.12321,69.8007,1308.64,451.856,1228.15,3.11682
11.5506,1.0626,70.1462,1463.17,496.924,1376.2,3.16529
10.0462,1.002,70.5986,1635.59,543.317,1542.72,3.21367
8.73764,0.941394,70.9567,1828.76,596.69,1728.67,3.26216
7.59956,0.880788,71.1807,2045.37,659.804,1936.03,3.31077
6.60971,0.820182,71.5842,2293.1,724.416,2175.67,3.36042
5.74879,0.759576,71.9592,2569.76,795.84,2443.42,3.40989
5,0.69897,72.3676,2889.62,875.294,2753.87,3.46084
4.34874,0.638363,72.7327,3236.07,960.562,3090.22,3.51002
3.78232,0.577758,73.0831,3631.24,1056.63,3474.1,3.56005
3.28967,0.517152,73.4723,4077.38,1159.93,3908.91,3.61038
2.86118,0.456545,73.7862,4584.6,1280.12,4402.25,3.6613
2.48851,0.395939,74.0548,5175.64,1421.84,4976.5,3.71396
2.16438,0.335334,74.4149,5793.97,1556.66,5580.94,3.76298
1.88247,0.274728,74.924,6413.78,1668.22,6193.03,3.80711
1.63727,0.21412,74.8685,7308.64,1907.81,7055.24,3.86384
1.42402,0.153516,75.1637,8198.44,2099.28,7925.11,3.91373
1.23854,0.09291,75.1859,9364.07,2394.24,9052.81,3.97146
1.07722,0.0323044,75.4332,10473.4,2634.15,10136.7,4.02009
0.936909,-0.0283026,75.7219,11746.1,2896.92,11383.3,4.06989
0.814875,-0.088909,75.6199,13204,3279.26,12790.3,4.12071
0.708737,-0.149515,75.7922,14849.8,3644.73,14395.5,4.17172
0.616423,-0.210121,75.8233,16865.9,4130.69,16352.3,4.22701
0.536134,-0.270727,76.0273,18955.1,4576.87,18394.2,4.27773
0.466302,-0.331333,75.9909,21642,5239,20998.3,4.3353
0.405565,-0.39194,76.2061,24204.9,5771.18,23506.8,4.3839
0.35274,-0.452545,76.2612,27429.7,6514.46,26644.9,4.43822
0.306795,-0.513152,76.2834,31078.9,7369.42,30192.5,4.49247
0.266835,-0.573757,76.4199,34840.5,8180.72,33866.5,4.54208
0.232079,-0.634364,76.3175,39705.5,9391.97,38578.8,4.59885
0.201851,-0.694969,76.3181,44975.7,10638.1,43699.4,4.65298
0.17556,-0.755574,74.7506,50995.5,13412.9,49199.9,4.70753
0.152693,-0.816181,76.2935,57704.7,13673.1,56061.4,4.76121
0.132804,-0.876789,76.0205,65739.2,15881,63792.1,4.81782
0.115506,-0.937395,76.1082,74728.7,17941.6,72543,4.87349
0.100462,-0.997998,76.0715,84916,20440.2,82419.2,4.92899
0.0873764,-1.05861,75.8179,97395.9,23862.5,94427.5,4.98854
0.0759956,-1.11921,75.8222,111361,27275.7,107969,5.04673
0.0660971,-1.17982,75.5124,127328,31853.8,123279,5.10492
0.0574878,-1.24042,75.3571,147160,37201.1,142380,5.16779
0.05,-1.30103,75.3082,171730,43553.9,166115,5.23485