File: membrane conductivity analysis/EIS data/Book23.csv
I-16-3,,,,,,
freq / Hz,Log(f / Hz),neg. Phase / бу,Z / Ohm,Z' / Ohm,Z'' / Ohm,Log(Z / Ohm)
50000,4.69897,17.8559,23.285,22.1633,7.13974,1.36708
43487.4,4.63836,18.5066,23.3855,22.1762,7.42288,1.36895
37823.2,4.57776,19.0472,24.0353,22.7194,7.84386,1.38085
32896.7,4.51715,20.0937,24.4361,22.9488,8.3952,1.38803
28611.8,4.45655,20.9871,25.0372,23.3762,8.96725,1.39859
24885.1,4.39594,21.7304,25.9552,24.1108,9.60964,1.41422
21643.8,4.33533,22.8322,26.664,24.5747,10.3465,1.42593
18824.7,4.27473,24.352,26.8725,24.4816,11.0806,1.42931
16372.7,4.21412,25.3397,27.9169,25.2309,11.948,1.44587
14240.2,4.15352,26.5101,28.8323,25.8008,12.8695,1.45988
12385.4,4.09291,27.61,29.8985,26.4937,13.8565,1.47565
10772.2,4.0323,28.6027,31.3035,27.4832,14.986,1.49559
9369.09,3.9717,29.8966,32.6018,28.2633,16.2499,1.51324
8148.75,3.91109,30.9984,34.1661,29.2866,17.596,1.5336
7087.37,3.85049,31.7001,36.3711,30.9449,19.112,1.56076
6164.23,3.78988,33.3443,37.7459,31.5322,20.7477,1.57687
5361.34,3.72927,34.5165,39.8849,32.8637,22.6005,1.60081
4663.02,3.66867,35.5901,42.2117,34.3266,24.5665,1.62543
4055.65,3.60806,36.3135,45.1523,36.3832,26.7393,1.65468
3527.4,3.54745,37.1217,48.3066,38.5175,29.1535,1.68401
3067.95,3.48685,37.7404,51.657,40.85,31.6185,1.71313
2668.35,3.42624,38.0375,55.9069,44.0327,34.4486,1.74747
2320.79,3.36564,39.4654,59.125,45.6449,37.5806,1.77177
2018.51,3.30503,40.7653,62.6285,47.4342,40.8941,1.79677
1755.6,3.24443,42.432,66.2038,48.8637,44.6687,1.82088
1526.93,3.18382,43.7224,70.4818,50.937,48.7146,1.84808
1328.04,3.12321,42.8352,77.9515,57.1628,52.9986,1.89182
1155.06,3.0626,43.6246,83.9827,60.793,57.9422,1.92419
1004.62,3.002,45.1739,88.7253,62.5475,62.9284,1.94805
873.764,2.94139,46.4364,95.1146,65.5491,68.9209,1.97825
759.956,2.88079,46.7669,103.064,70.5954,75.0896,2.01311
660.971,2.82018,47.1864,111.36,75.6819,81.6902,2.04673
574.878,2.75958,48.402,119.216,79.1476,89.1523,2.07633
500,2.69897,48.6382,128.757,85.0843,96.6389,2.10977
434.875,2.63836,48.6043,140.251,92.742,105.211,2.14691
378.232,2.57776,49.1784,151.364,98.9473,114.544,2.18002
328.967,2.51715,50.1506,162.609,104.195,124.84,2.21114
286.118,2.45655,50.2212,176.843,113.148,135.907,2.24759
248.851,2.39594,50.4073,191.845,122.268,147.835,2.28295
216.438,2.33533,50.9183,207.115,130.571,160.772,2.31621
188.247,2.27473,51.0161,224.689,141.352,174.656,2.35158
163.727,2.21412,51.2959,243.134,152.031,189.738,2.38585
142.402,2.15352,51.5336,262.955,163.572,205.886,2.41988
123.854,2.09291,51.6979,284.429,176.291,223.207,2.45397
107.722,2.0323,51.8869,307.877,190.026,242.235,2.48838
93.6909,1.9717,51.9161,334.143,206.104,263.006,2.52393
81.4875,1.91109,51.9915,361.832,222.808,285.095,2.55851
70.8737,1.85049,52.0359,391.586,240.891,308.725,2.59283
61.6423,1.78988,52.2835,424.276,259.553,335.622,2.62765
53.6134,1.72927,52.2012,458.891,281.25,362.601,2.66171
46.6302,1.66867,52.3214,496.954,303.754,393.315,2.69632
40.5565,1.60806,52.4607,537.623,327.577,426.3,2.73048
35.274,1.54745,52.5779,581.582,353.417,461.881,2.76461
30.6795,1.48685,52.6978,628.772,381.048,500.157,2.79849
26.6835,1.42624,52.8859,681.591,411.275,543.524,2.83352
23.2079,1.36564,53.0965,738.482,443.436,590.525,2.86834
20.1851,1.30503,53.3138,801.058,478.577,642.384,2.90366
17.556,1.24443,53.537,867.779,515.725,697.903,2.93841
15.2693,1.18382,53.87,941.924,555.376,760.775,2.97402
13.2804,1.12321,54.2456,1022.37,597.384,829.686,3.00961
11.5506,1.0626,54.5752,1111.15,644.062,905.454,3.04577
10.0462,1.002,54.7988,1209.12,696.998,988.012,3.08247
8.73764,0.941394,55.235,1314.3,749.427,1079.69,3.11869
7.59956,0.880788,55.4999,1431.34,810.723,1179.6,3.15574
6.60971,0.820182,55.8628,1565.84,878.712,1296.04,3.19475
5.74879,0.759576,56.168,1707.55,950.697,1418.42,3.23237
5,0.69897,56.4604,1868.3,1032.26,1557.23,3.27145
4.34874,0.638363,56.741,2039.58,1118.55,1705.49,3.30954
3.78232,0.577758,56.903,2236.29,1221.15,1873.45,3.34953
3.28967,0.517152,57.1293,2454.29,1332.05,2061.35,3.38993
2.86118,0.456545,57.15,2692.84,1460.71,2262.24,3.43021
2.48851,0.395939,57.1329,2961.91,1607.41,2487.8,3.47157
2.16438,0.335334,57.0415,3248.51,1767.3,2725.71,3.51168
1.88247,0.274728,57.0149,3555.18,1935.51,2982.13,3.55086
1.63727,0.21412,56.146,3934.02,2191.56,3267.04,3.59484
1.42402,0.153516,55.9722,4284.75,2397.72,3551.05,3.63193
1.23854,0.09291,55.5205,4698.82,2660.05,3873.37,3.67199
1.07722,0.0323044,54.376,5193.03,3024.75,4221.19,3.71542
0.936909,-0.0283026,53.7855,5647.7,3336.72,4556.63,3.75187
0.814875,-0.088909,52.5543,6180.11,3757.56,4906.57,3.791
0.708737,-0.149515,52.6824,6710.25,4067.97,5336.58,3.82674
0.616423,-0.210121,50.462,7272.63,4629.68,5608.67,3.86169
0.536134,-0.270727,49.2556,7891.53,5150.69,5978.85,3.89716
0.466302,-0.331333,47.8836,8568.53,5746.4,6356,3.93291
0.405565,-0.39194,46.3525,9225.21,6367.42,6675.36,3.96498
0.35274,-0.452545,44.8717,9918.58,7029.19,6997.77,3.99645
0.306795,-0.513152,43.4089,10678.9,7757.91,7338.58,4.02853
0.266835,-0.573757,41.8361,11399.4,8493.23,7603.45,4.05688
0.232079,-0.634364,40.2822,12198.7,9305.97,7887.08,4.08631
0.201851,-0.694969,39.1548,13065.8,10131.8,8250.01,4.11614
0.17556,-0.755574,37.0582,13688,10923.4,8248.75,4.13634
0.152693,-0.816181,35.9003,14522.3,11763.6,8515.52,4.16204
0.132804,-0.876789,34.5301,15521,12786.7,8797.93,4.19092
0.115506,-0.937395,33.8526,17409.1,14457.8,9697.89,4.24078
0.100462,-0.997998,32.515,18934.6,15966.7,10177.7,4.27726
0.0873764,-1.05861,31.7781,20799.8,17681.8,10953.8,4.31806
0.0759956,-1.11921,29.5771,21780.1,18942,10750.5,4.33806
0.0660971,-1.17982,28.4936,22741.4,19986.8,10849,4.35682
0.0574878,-1.24042,28.0048,24411.1,21552.8,11462.1,4.38759
0.05,-1.30103,26.0549,25324.1,22750.5,11123.1,4.40353