File: membrane conductivity analysis/EIS data/Book3.csv
Sartorius_CelluloseNitrate5-1(1),,,,,,
freq / Hz,Log(f / Hz),neg. Phase / бу,Z / Ohm,Z' / Ohm,Z'' / Ohm,Log(Z / Ohm)
50000,4.69897,50.7547,7.91418,5.00684,6.12909,0.898406
43487.4,4.63836,49.8473,9.21958,5.94504,7.04678,0.964711
37823.2,4.57776,51.7911,10.0026,6.18694,7.85968,1.00011
32896.7,4.51715,53.0504,10.9339,6.57251,8.73801,1.03878
28611.8,4.45655,51.4439,12.5179,7.80217,9.789,1.09753
24885.1,4.39594,52.7952,13.5898,8.21731,10.824,1.13321
21643.8,4.33533,54.536,14.6286,8.48737,11.9147,1.1652
18824.7,4.27473,54.7457,16.1024,9.29438,13.1492,1.20689
16372.7,4.21412,55.0018,17.6422,10.1187,14.452,1.24655
14240.2,4.15352,55.3821,19.3674,11.0026,15.9386,1.28707
12385.4,4.09291,55.5454,21.2718,12.0346,17.5402,1.3278
10772.2,4.0323,56.0343,23.251,12.9902,19.2837,1.36644
9369.09,3.9717,56.314,25.492,14.1389,21.2117,1.4064
8148.75,3.91109,56.6746,27.9283,15.3436,23.3358,1.44604
7087.37,3.85049,56.8516,30.5844,16.7239,25.607,1.4855
6164.23,3.78988,57.084,33.5728,18.2438,28.1833,1.52599
5361.34,3.72927,57.3623,36.851,19.8747,31.0321,1.56645
4663.02,3.66867,57.5835,40.4155,21.6656,34.1177,1.60655
4055.65,3.60806,57.77,44.3122,23.6325,37.4843,1.64652
3527.4,3.54745,58.0595,48.6352,25.7299,41.2717,1.68695
3067.95,3.48685,58.2373,53.4001,28.1099,45.4027,1.72754
2668.35,3.42624,58.4542,58.566,30.6405,49.9113,1.76765
2320.79,3.36564,58.6114,64.3572,33.5198,54.9388,1.8086
2018.51,3.30503,58.6931,70.8024,36.7905,60.4933,1.85005
1755.6,3.24443,58.8423,77.7877,40.247,66.5666,1.89091
1526.93,3.18382,58.876,85.333,44.1079,73.0494,1.93112
1328.04,3.12321,59.0212,93.8351,48.2989,80.4503,1.97237
1155.06,3.0626,59.3174,103.146,52.6338,88.7066,2.01345
1004.62,3.002,59.363,113.173,57.6728,97.3759,2.05374
873.764,2.94139,59.3808,124.669,63.4975,107.286,2.09576
759.956,2.88079,59.6035,136.493,69.063,117.731,2.13511
660.971,2.82018,59.5827,150.153,76.0217,129.486,2.17653
574.878,2.75958,59.6182,165.613,83.7604,142.87,2.21909
500,2.69897,59.6757,181.694,91.7363,156.835,2.25934
434.875,2.63836,59.7459,199.757,100.645,172.55,2.3005
378.232,2.57776,59.781,219.56,110.506,189.724,2.34155
328.967,2.51715,59.8994,241.395,121.064,208.842,2.38273
286.118,2.45655,59.9249,265.227,132.914,229.519,2.42362
248.851,2.39594,59.9663,291.762,146.03,252.588,2.46503
216.438,2.33533,60.001,320.816,160.403,277.837,2.50626
188.247,2.27473,60.1483,352.851,175.634,306.034,2.54759
163.727,2.21412,60.1593,387.788,192.96,336.372,2.58859
142.402,2.15352,60.2365,426.315,211.632,370.076,2.62973
123.854,2.09291,60.3163,469.255,232.381,407.676,2.67141
107.722,2.0323,60.3799,515.625,254.846,448.244,2.71233
93.6909,1.9717,60.4296,567.521,280.067,493.601,2.75398
81.4875,1.91109,60.5032,624.148,307.315,543.248,2.79529
70.8737,1.85049,60.6511,686.488,336.466,598.378,2.83663
61.6423,1.78988,61.0124,751.197,364.045,657.091,2.87575
53.6134,1.72927,60.9978,831.929,403.355,727.606,2.92009
46.6302,1.66867,61.0908,914.344,442.015,800.405,2.96111
40.5565,1.60806,61.2525,1006.35,484.007,882.318,3.00275
35.274,1.54745,61.4449,1107.51,529.392,972.786,3.04435
30.6795,1.48685,61.5983,1218.62,579.636,1071.94,3.08587
26.6835,1.42624,61.7693,1343.99,635.736,1184.12,3.1284
23.2079,1.36564,62.0322,1480.44,694.291,1307.54,3.17039
20.1851,1.30503,62.2809,1635.18,760.583,1447.52,3.21357
17.556,1.24443,62.5887,1802.9,830.007,1600.48,3.25597
15.2693,1.18382,62.8879,1992.8,908.184,1773.82,3.29946
13.2804,1.12321,63.1676,2201.32,993.637,1964.31,3.34268
11.5506,1.0626,63.4984,2438.91,1088.3,2182.63,3.3872
10.0462,1.002,63.8545,2704.14,1191.58,2427.45,3.43203
8.73764,0.941394,64.2444,2995.25,1301.53,2697.69,3.47643
7.59956,0.880788,64.5003,3315.95,1427.54,2992.94,3.52061
6.60971,0.820182,64.8821,3691.07,1566.79,3342.02,3.56715
5.74879,0.759576,65.2865,4095.51,1712.26,3720.4,3.61231
5,0.69897,65.6099,4579.55,1891.11,4170.85,3.66082
4.34874,0.638363,66.042,5071.1,2059.2,4634.19,3.7051
3.78232,0.577758,66.3958,5680.03,2274.38,5204.8,3.75435
3.28967,0.517152,66.7592,6322.52,2494.84,5809.47,3.80089
2.86118,0.456545,67.1323,7044.19,2737.41,6490.55,3.84783
2.48851,0.395939,67.4262,7903.06,3033.77,7297.58,3.8978
2.16438,0.335334,67.9555,8787.65,3298.24,8145.21,3.94387
1.88247,0.274728,68.0918,9828.49,3667.22,9118.71,3.99249
1.63727,0.21412,68.6028,10896.9,3975.54,10145.8,4.0373
1.42402,0.153516,68.9323,12124.4,4358.36,11313.9,4.08366
1.23854,0.09291,69.7329,13288.5,4603.1,12465.8,4.12348
1.07722,0.0323044,69.4422,15239,5351.19,14268.5,4.18296
0.936909,-0.0283026,69.888,16879.3,5804.06,15850.1,4.22735
0.814875,-0.088909,70.2447,18686.3,6316.03,17586.5,4.27152
0.708737,-0.149515,70.4676,20971.1,7011.48,19764.3,4.32162
0.616423,-0.210121,70.4476,23898.8,7998.18,22520.7,4.37838
0.536134,-0.270727,70.7165,26858.5,8869.83,25351.7,4.42908
0.466302,-0.331333,70.9829,30256.2,9858.96,28604.8,4.48081
0.405565,-0.39194,71.307,33880,10858.5,32092.8,4.52994
0.35274,-0.452545,71.4815,38324,12172.1,36339.6,4.58347
0.306795,-0.513152,71.5361,43574.2,13800.2,41331.1,4.63923
0.266835,-0.573757,71.7618,49145.9,15381.1,46677,4.69149
0.232079,-0.634364,71.8994,55784.2,17331.4,53023.6,4.74651
0.201851,-0.694969,71.9433,63899.9,19806.3,60752.9,4.8055
0.17556,-0.755574,72.4531,71433.2,21536.1,68109.4,4.8539
0.152693,-0.816181,72.0965,84044.2,25836.4,79974.4,4.92451
0.132804,-0.876789,72.167,97264.8,29786.7,92591.5,4.98796
0.115506,-0.937395,72.2392,113449,34607.1,108042,5.0548
0.100462,-0.997998,72.464,132983,40068.6,126803,5.1238
0.0873764,-1.05861,72.2609,163571,49837.4,155794,5.21371
0.0759956,-1.11921,71.821,224039,69897.2,212857,5.35032
0.0660971,-1.17982,71.4932,362663,115115,343908,5.5595
0.0574878,-1.24042,71.3238,508200,162736,481440,5.70603
0.05,-1.30103,70.5884,705874,234599,665749,5.84873