File: membrane conductivity analysis/EIS data/Book8.csv
PW-2,,,,,,
freq / Hz,Log(f / Hz),neg. Phase / бу,Z / Ohm,Z' / Ohm,Z'' / Ohm,Log(Z / Ohm)
50000,4.69897,15.6173,20.8955,20.1241,5.62529,1.32005
43487.4,4.63836,15.9342,21.2156,20.4005,5.82438,1.32666
37823.2,4.57776,16.4931,21.5115,20.6264,6.10711,1.33267
32896.7,4.51715,17.2767,21.9275,20.9381,6.51217,1.34099
28611.8,4.45655,18.0143,22.4392,21.3392,6.93943,1.35101
24885.1,4.39594,18.8534,23.0159,21.7811,7.43753,1.36203
21643.8,4.33533,19.6559,23.6174,22.2412,7.94417,1.37323
18824.7,4.27473,20.3923,24.4688,22.9354,8.52607,1.38861
16372.7,4.21412,18.3063,29.3344,27.8498,9.21383,1.46738
14240.2,4.15352,20.4488,28.0224,26.2566,9.79021,1.44751
12385.4,4.09291,21.5261,28.5994,26.6047,10.4938,1.45636
10772.2,4.0323,22.4211,29.5541,27.32,11.2723,1.47062
9369.09,3.9717,23.4898,30.3186,27.8061,12.0846,1.48171
8148.75,3.91109,24.5491,31.3898,28.5524,13.0416,1.49679
7087.37,3.85049,24.883,33.2182,30.1345,13.9771,1.52138
6164.23,3.78988,26.0018,34.3493,30.8724,15.0587,1.53592
5361.34,3.72927,27.0806,35.5992,31.6964,16.2063,1.55144
4663.02,3.66867,28.222,36.975,32.5795,17.4851,1.56791
4055.65,3.60806,29.3219,38.5709,33.6293,18.8888,1.58626
3527.4,3.54745,30.5064,40.1783,34.6165,20.3959,1.60399
3067.95,3.48685,31.6362,41.9785,35.7403,22.0187,1.62303
2668.35,3.42624,32.552,44.2246,37.277,23.7957,1.64566
2320.79,3.36564,33.8435,46.2662,38.4269,25.7668,1.66526
2018.51,3.30503,35.228,48.5128,39.6283,27.9837,1.68586
1755.6,3.24443,36.5987,50.8775,40.846,30.3335,1.70653
1526.93,3.18382,38.4674,53.22,41.6693,33.1065,1.72607
1328.04,3.12321,39.7957,56.1469,43.1394,35.9369,1.74933
1155.06,3.0626,40.8996,59.6439,45.0823,39.051,1.77557
1004.62,3.002,41.9327,63.8062,47.4674,42.639,1.80486
873.764,2.94139,42.9578,67.8217,49.6357,46.2178,1.83137
759.956,2.88079,44.2514,72.3413,51.817,50.4803,1.85939
660.971,2.82018,45.031,77.6849,54.9018,54.9612,1.89034
574.878,2.75958,46.2894,83.2754,57.5446,60.1947,1.92052
500,2.69897,47.2209,89.4884,60.7782,65.6825,1.95177
434.875,2.63836,48.1682,96.3257,64.2441,71.7729,1.98374
378.232,2.57776,49.1193,103.765,67.9124,78.4537,2.01605
328.967,2.51715,49.8972,112.017,72.1568,85.6803,2.04928
286.118,2.45655,50.6434,120.859,76.6418,93.4497,2.08228
248.851,2.39594,51.4093,130.765,81.5649,102.209,2.11649
216.438,2.33533,52.102,141.716,87.0502,111.829,2.15142
188.247,2.27473,52.7823,153.766,93.0047,122.45,2.18686
163.727,2.21412,53.4157,166.904,99.4756,134.021,2.22247
142.402,2.15352,54.028,181.529,106.628,146.912,2.25895
123.854,2.09291,54.4529,197.791,114.99,160.93,2.29621
107.722,2.0323,54.7077,216.188,124.902,176.456,2.33483
93.6909,1.9717,55.3095,235.832,134.222,193.91,2.3726
81.4875,1.91109,55.6686,257.652,145.31,212.766,2.41103
70.8737,1.85049,56.2957,281.389,156.145,234.091,2.44931
61.6423,1.78988,57.1097,309.457,168.045,259.855,2.4906
53.6134,1.72927,57.4567,341.83,183.883,288.157,2.53381
46.6302,1.66867,57.9527,378.282,200.724,320.636,2.57782
40.5565,1.60806,58.5974,427.888,222.95,365.214,2.63133
35.274,1.54745,59.3335,489.484,249.657,421.03,2.68974
30.6795,1.48685,60.3031,575.256,284.989,499.701,2.75986
26.6835,1.42624,61.287,681.679,327.494,597.858,2.83358
23.2079,1.36564,62.0431,785.824,368.4,694.118,2.89533
20.1851,1.30503,62.6079,890.597,409.743,790.742,2.94968
17.556,1.24443,62.9889,992.2,450.621,883.969,2.9966
15.2693,1.18382,63.2849,1089.1,489.61,972.84,3.03707
13.2804,1.12321,63.4651,1186.06,529.866,1061.13,3.07411
11.5506,1.0626,63.6229,1290.04,573.135,1155.73,3.1106
10.0462,1.002,63.7745,1400.37,618.83,1256.22,3.14624
8.73764,0.941394,63.9461,1521.34,668.197,1366.74,3.18223
7.59956,0.880788,64.1234,1667.32,727.678,1500.15,3.22202
6.60971,0.820182,64.3272,1833.82,794.468,1652.79,3.26336
5.74879,0.759576,64.6176,2011.99,862.452,1817.76,3.30363
5,0.69897,64.8381,2217.51,942.836,2007.09,3.34587
4.34874,0.638363,65.0705,2438.77,1027.95,2211.54,3.38717
3.78232,0.577758,65.2084,2696.31,1130.61,2447.82,3.43077
3.28967,0.517152,65.346,2984.77,1245.06,2712.69,3.47491
2.86118,0.456545,65.4901,3291.87,1365.63,2995.24,3.51744
2.48851,0.395939,65.6453,3652.17,1506.09,3327.16,3.56255
2.16438,0.335334,65.6234,4032.12,1664.19,3672.66,3.60553
1.88247,0.274728,65.8107,4405.8,1805.29,4018.96,3.64402
1.63727,0.21412,65.4677,4931.97,2047.78,4486.75,3.69302
1.42402,0.153516,65.3261,5477.86,2286.75,4977.72,3.73861
1.23854,0.09291,64.7699,6133.23,2614.32,5548.14,3.78769
1.07722,0.0323044,64.7771,6755.07,2878.61,6111.02,3.82963
0.936909,-0.0283026,64.4756,7473.86,3220.46,6744.43,3.87354
0.814875,-0.088909,63.2632,8360.73,3761.43,7466.82,3.92224
0.708737,-0.149515,62.7715,9269.3,4241.09,8242.16,3.96705
0.616423,-0.210121,62.2285,10225.5,4764.54,9047.66,4.00968
0.536134,-0.270727,61.4354,11336.4,5420.5,9956.51,4.05448
0.466302,-0.331333,60.5073,12521.3,6164.37,10898.7,4.09765
0.405565,-0.39194,59.5131,13815.7,7009.29,11905.6,4.14037
0.35274,-0.452545,58.1371,15192.6,8020.01,12903.3,4.18163
0.306795,-0.513152,56.9307,16711.7,9118.79,14004.6,4.22302
0.266835,-0.573757,55.5834,18307.2,10347.3,15102.5,4.26262
0.232079,-0.634364,54.2851,20011,11681.4,16247.5,4.30127
0.201851,-0.694969,52.9143,21794.1,13142,17385.9,4.33834
0.17556,-0.755574,51.2727,23716.2,14837.2,18501.8,4.37505
0.152693,-0.816181,49.2261,25976.3,16964.5,19671.7,4.41458
0.132804,-0.876789,47.3738,28297.2,19163.2,20820.7,4.45174
0.115506,-0.937395,45.7074,30692.2,21433.1,21968.9,4.48703
0.100462,-0.997998,44.0188,33715.2,24245,23428.5,4.52783
0.0873764,-1.05861,41.9551,36107.7,26852.2,24139.7,4.5576
0.0759956,-1.11921,41.4961,39000.1,29211.1,25840.2,4.59107
0.0660971,-1.17982,37.1941,41701.3,33218.9,25209.1,4.62015
0.0574878,-1.24042,36.9887,47424.1,37880.2,28533,4.676
0.05,-1.30103,35.2089,51085.7,41739.9,29453.9,4.7083