File: membrane conductivity analysis/EIS data/Book15.csv
PVDF0.45-1(4),,,,,,
freq / Hz,Log(f / Hz),neg. Phase / бу,Z / Ohm,Z' / Ohm,Z'' / Ohm,Log(Z / Ohm)
50000,4.69897,45.616,3.4282,2.3979,2.45003,0.535066
43487.4,4.63836,46.1842,3.88428,2.68925,2.80277,0.589311
37823.2,4.57776,46.2282,4.43636,3.06902,3.2035,0.647027
32896.7,4.51715,45.0773,5.15938,3.64331,3.65315,0.712598
28611.8,4.45655,45.4105,5.74212,4.0311,4.08928,0.759072
24885.1,4.39594,45.5023,6.34973,4.45041,4.52912,0.802755
21643.8,4.33533,46.0458,6.92755,4.80829,4.98711,0.84058
18824.7,4.27473,46.6015,7.54237,5.18213,5.48023,0.877508
16372.7,4.21412,47.0683,8.1843,5.57454,5.99227,0.912982
14240.2,4.15352,47.2581,8.92132,6.05488,6.55198,0.950429
12385.4,4.09291,47.5088,9.66443,6.5281,7.12636,0.985176
10772.2,4.0323,47.8432,10.4687,7.02617,7.76053,1.01989
9369.09,3.9717,48.2919,11.3165,7.52928,8.44826,1.05371
8148.75,3.91109,48.5997,12.24,8.09448,9.18129,1.08778
7087.37,3.85049,48.8828,13.2565,8.71748,9.98697,1.12243
6164.23,3.78988,49.1736,14.324,9.36456,10.8388,1.15606
5361.34,3.72927,49.4425,15.4711,10.0595,11.7542,1.18952
4663.02,3.66867,49.6632,16.7239,10.825,12.7478,1.22334
4055.65,3.60806,49.8836,18.0601,11.6369,13.8112,1.25672
3527.4,3.54745,50.1164,19.5149,12.5136,14.9748,1.29037
3067.95,3.48685,50.3862,21.0636,13.4303,16.2265,1.32353
2668.35,3.42624,50.616,22.7646,14.4445,17.595,1.35726
2320.79,3.36564,50.6158,24.7285,15.6906,19.1129,1.3932
2018.51,3.30503,50.8588,26.7296,16.8726,20.7313,1.42699
1755.6,3.24443,51.0225,28.943,18.2056,22.5001,1.46154
1526.93,3.18382,51.3466,31.2456,19.5162,24.4009,1.49479
1328.04,3.12321,51.5877,33.871,21.0446,26.54,1.52983
1155.06,3.0626,51.8227,36.5811,22.6107,28.7565,1.56326
1004.62,3.002,52.0565,39.6127,24.3572,31.2393,1.59783
873.764,2.94139,52.266,42.8885,26.2476,33.9188,1.63234
759.956,2.88079,52.708,46.3926,28.1082,36.908,1.66645
660.971,2.82018,52.8716,50.3779,30.4083,40.1655,1.70224
574.878,2.75958,53.1328,54.5116,32.7049,43.6108,1.73649
500,2.69897,53.3762,59.0988,35.2559,47.4309,1.77158
434.875,2.63836,53.6403,64.1564,38.0353,51.6658,1.80724
378.232,2.57776,53.8629,69.6963,41.1012,56.2873,1.84321
328.967,2.51715,54.083,75.7338,44.4264,61.3344,1.87929
286.118,2.45655,54.2948,82.2312,47.9914,66.7743,1.91504
248.851,2.39594,54.4537,89.3062,51.9192,72.6636,1.95088
216.438,2.33533,54.6956,97.0615,56.0939,79.2111,1.98705
188.247,2.27473,54.8781,105.592,60.7491,86.3671,2.02363
163.727,2.21412,55.0355,114.805,65.7911,94.0833,2.05996
142.402,2.15352,55.208,124.81,71.2165,102.498,2.09625
123.854,2.09291,55.3784,136.011,77.2755,111.927,2.13357
107.722,2.0323,55.5253,148.075,83.8165,122.069,2.17048
93.6909,1.9717,55.7303,161.295,90.8234,133.293,2.20762
81.4875,1.91109,55.8093,175.918,98.8571,145.515,2.24531
70.8737,1.85049,56.0013,191.705,107.196,158.933,2.28263
61.6423,1.78988,56.2582,208.953,116.063,173.755,2.32005
53.6134,1.72927,56.3627,228.048,126.324,189.864,2.35803
46.6302,1.66867,56.5457,248.84,137.178,207.614,2.39592
40.5565,1.60806,56.7288,271.672,149.04,227.141,2.43404
35.274,1.54745,56.9011,296.286,161.797,248.207,2.47171
30.6795,1.48685,57.0606,323.552,175.932,271.54,2.50994
26.6835,1.42624,57.2472,353.89,191.46,297.626,2.54887
23.2079,1.36564,57.4134,387.603,208.753,326.586,2.58839
20.1851,1.30503,57.5974,424.915,227.697,358.757,2.6283
17.556,1.24443,57.7393,465.151,248.285,393.345,2.66759
15.2693,1.18382,57.8471,509.831,271.322,431.639,2.70743
13.2804,1.12321,57.9165,558.027,296.399,472.802,2.74666
11.5506,1.0626,57.8739,611.943,325.422,518.242,2.78671
10.0462,1.002,57.8674,671.535,357.177,568.668,2.82707
8.73764,0.941394,57.7834,737.014,392.918,623.543,2.86748
7.59956,0.880788,57.6635,809.233,432.851,683.738,2.90807
6.60971,0.820182,57.4589,888.582,477.972,749.08,2.9487
5.74879,0.759576,57.2865,973.82,526.289,819.356,2.98848
5,0.69897,57.0165,1070.76,582.921,898.184,3.02969
4.34874,0.638363,56.6947,1177.21,646.404,983.859,3.07085
3.78232,0.577758,56.2268,1299.56,722.432,1080.25,3.1138
3.28967,0.517152,55.8456,1427.41,801.381,1181.22,3.15455
2.86118,0.456545,55.3157,1563.13,889.505,1285.36,3.194
2.48851,0.395939,54.7595,1717.79,991.18,1402.98,3.23497
2.16438,0.335334,54.2421,1880.53,1098.91,1526.04,3.27428
1.88247,0.274728,53.6005,2054.79,1219.34,1653.9,3.31277
1.63727,0.21412,52.9906,2230.98,1342.93,1781.52,3.3485
1.42402,0.153516,51.9758,2436.63,1500.95,1919.46,3.38679
1.23854,0.09291,50.9334,2665.18,1679.66,2069.29,3.42573
1.07722,0.0323044,50.2135,2890.18,1849.51,2220.91,3.46092
0.936909,-0.0283026,49.0827,3145.88,2060.45,2377.2,3.49774
0.814875,-0.088909,45.0363,3270.27,2310.97,2313.9,3.51458
0.708737,-0.149515,49.0804,3981.72,2608.02,3008.7,3.60007
0.616423,-0.210121,49.4313,4539.97,2952.61,3448.69,3.65705
0.536134,-0.270727,48.7368,4991.01,3291.66,3751.68,3.69819
0.466302,-0.331333,47.5073,5484.93,3705.05,4044.39,3.73917
0.405565,-0.39194,48.3428,6070.68,4035.01,4535.62,3.78324
0.35274,-0.452545,47.7818,6649.58,4468.22,4924.62,3.82279
0.306795,-0.513152,50.3061,7195.42,4595.62,5536.64,3.85706
0.266835,-0.573757,49.0637,8107.08,5311.92,6124.41,3.90886
0.232079,-0.634364,48.421,8863.38,5882.2,6630.18,3.9476
0.201851,-0.694969,47.171,9646.91,6558.1,7074.9,3.98439
0.17556,-0.755574,45.9799,10509.7,7303.31,7557.49,4.02159
0.152693,-0.816181,44.5029,11431.8,8153.36,8013.1,4.05811
0.132804,-0.876789,43.2549,12447.6,9065.73,8529.65,4.09509
0.115506,-0.937395,41.5666,13490.5,10093.4,8950.84,4.13003
0.100462,-0.997998,39.8401,14619.2,11225.2,9365.78,4.16492
0.0873764,-1.05861,37.9568,15975.8,12596.5,9826.18,4.20346
0.0759956,-1.11921,37.2402,17970.5,14306.4,10875,4.25456
0.0660971,-1.17982,46.8007,27593.7,18889,20115.2,4.44081
0.0574878,-1.24042,50.7339,35461.7,22444.5,27455,4.54976
0.05,-1.30103,45.991,37120.3,25790.1,26698.1,4.56961