File: membrane conductivity analysis/EIS data/Book9.csv
PW-1,,,,,,
freq / Hz,Log(f / Hz),neg. Phase / бу,Z / Ohm,Z' / Ohm,Z'' / Ohm,Log(Z / Ohm)
50000,4.69897,14.6319,15.4734,14.9715,3.9087,1.18959
43487.4,4.63836,15.3375,15.7615,15.2002,4.169,1.1976
37823.2,4.57776,16.1713,16.1186,15.4809,4.48921,1.20733
32896.7,4.51715,17.0748,16.4972,15.77,4.84388,1.21741
28611.8,4.45655,17.8878,16.9792,16.1584,5.21523,1.22992
24885.1,4.39594,18.5516,17.7173,16.7966,5.63689,1.2484
21643.8,4.33533,19.5485,18.158,17.1113,6.07576,1.25907
18824.7,4.27473,20.5176,18.6897,17.5041,6.55065,1.2716
16372.7,4.21412,21.4577,19.3337,17.9937,7.07254,1.28631
14240.2,4.15352,22.6025,19.9368,18.4055,7.6624,1.29966
12385.4,4.09291,23.6883,20.5871,18.8525,8.27109,1.3136
10772.2,4.0323,24.849,21.3297,19.355,8.96333,1.32898
9369.09,3.9717,26.0286,22.1351,19.89,9.7133,1.34508
8148.75,3.91109,27.2213,23.054,20.5007,10.5456,1.36275
7087.37,3.85049,28.2618,23.873,21.0272,11.3039,1.37791
6164.23,3.78988,29.7485,24.4748,21.2493,12.1442,1.38872
5361.34,3.72927,31.1285,25.5913,21.9064,13.2297,1.40809
4663.02,3.66867,32.3953,26.7848,22.6163,14.3501,1.42789
4055.65,3.60806,33.558,28.1594,23.466,15.566,1.44962
3527.4,3.54745,34.7473,29.6014,24.3227,16.8716,1.47131
3067.95,3.48685,35.9382,31.2376,25.2916,18.3337,1.49468
2668.35,3.42624,37.1084,33.1121,26.4067,19.9774,1.51999
2320.79,3.36564,38.2844,35.0776,27.5339,21.7328,1.54503
2018.51,3.30503,39.4147,37.2285,28.7616,23.6374,1.57088
1755.6,3.24443,40.4756,39.6834,30.1865,25.7594,1.59861
1526.93,3.18382,41.5274,42.3111,31.6757,28.0513,1.62645
1328.04,3.12321,42.5469,45.2004,33.3002,30.5642,1.65514
1155.06,3.0626,43.5134,48.4215,35.1159,33.3394,1.68504
1004.62,3.002,44.3864,52.0489,37.1962,36.4079,1.71641
873.764,2.94139,45.2645,55.8281,39.2938,39.6582,1.74685
759.956,2.88079,46.0498,60.0817,41.6987,43.2554,1.77874
660.971,2.82018,46.835,64.6943,44.2575,47.1872,1.81087
574.878,2.75958,47.539,69.7579,47.0927,51.4631,1.84359
500,2.69897,48.2196,75.2069,50.1086,56.0821,1.87626
434.875,2.63836,48.8355,81.1514,53.4158,61.0926,1.9093
378.232,2.57776,49.4338,87.7044,57.0365,66.625,1.94302
328.967,2.51715,49.9503,94.8773,61.0489,72.6274,1.97716
286.118,2.45655,50.4683,102.688,65.3613,79.2003,2.01152
248.851,2.39594,50.9404,111.153,70.0405,86.309,2.04592
216.438,2.33533,50.8166,121.28,76.6253,94.0074,2.08379
188.247,2.27473,51.4991,130.92,81.5013,102.458,2.11701
163.727,2.21412,51.9406,141.834,87.4375,111.676,2.15178
142.402,2.15352,52.3631,153.673,93.8416,121.693,2.1866
123.854,2.09291,52.7134,166.855,101.081,132.752,2.22234
107.722,2.0323,53.0753,180.811,108.625,144.545,2.25722
93.6909,1.9717,53.4263,196.172,116.89,157.544,2.29264
81.4875,1.91109,53.6304,212.95,126.278,171.469,2.32828
70.8737,1.85049,54.0241,231.013,135.708,186.951,2.36364
61.6423,1.78988,54.4713,250.875,145.786,204.168,2.39946
53.6134,1.72927,54.7663,272.974,157.482,222.966,2.43612
46.6302,1.66867,55.1141,296.787,169.746,243.452,2.47244
40.5565,1.60806,55.4862,322.877,182.943,266.047,2.50904
35.274,1.54745,55.8918,351.201,196.938,290.787,2.54556
30.6795,1.48685,56.2703,382.523,212.406,318.132,2.58266
26.6835,1.42624,56.728,417.603,229.103,349.148,2.62076
23.2079,1.36564,57.0999,456.109,247.747,382.958,2.65907
20.1851,1.30503,57.517,498.616,267.781,420.608,2.69777
17.556,1.24443,57.8755,544.787,289.697,461.377,2.73623
15.2693,1.18382,58.2444,596.329,313.846,507.059,2.77549
13.2804,1.12321,58.586,652.259,339.969,556.653,2.81442
11.5506,1.0626,58.9679,715.381,368.792,612.995,2.85454
10.0462,1.002,59.3213,786.058,401.065,676.043,2.89545
8.73764,0.941394,59.5907,862.889,436.772,744.182,2.93595
7.59956,0.880788,59.8254,946.468,475.729,818.219,2.97611
6.60971,0.820182,60.024,1042.07,520.658,902.678,3.0179
5.74879,0.759576,60.1545,1146.08,570.362,994.076,3.05921
5,0.69897,60.1088,1264.8,630.316,1096.54,3.10202
4.34874,0.638363,60.2411,1392.15,690.997,1208.56,3.14369
3.78232,0.577758,60.1659,1536.06,764.177,1332.49,3.18641
3.28967,0.517152,60.0703,1693.74,845.071,1467.86,3.22885
2.86118,0.456545,59.9997,1867.29,933.652,1617.11,3.27121
2.48851,0.395939,59.6789,2062.7,1041.35,1780.55,3.31444
2.16438,0.335334,59.2888,2275.58,1162.17,1956.44,3.35709
1.88247,0.274728,58.7725,2501.32,1296.78,2138.92,3.39817
1.63727,0.21412,58.4075,2733.91,1432.23,2328.73,3.43678
1.42402,0.153516,57.6089,3020.1,1617.86,2550.21,3.48002
1.23854,0.09291,56.636,3335.09,1834.15,2785.44,3.52311
1.07722,0.0323044,55.9675,3640.4,2037.4,3016.87,3.56115
0.936909,-0.0283026,55.0974,3971.05,2272.17,3256.76,3.59891
0.814875,-0.088909,53.583,4343.63,2578.63,3495.4,3.63785
0.708737,-0.149515,52.6021,4726.27,2870.48,3754.72,3.67452
0.616423,-0.210121,51.4801,5143.78,3203.48,4024.45,3.71128
0.536134,-0.270727,50.4805,5571.13,3545.13,4297.61,3.74594
0.466302,-0.331333,49.3143,6039.62,3937.29,4579.83,3.78101
0.405565,-0.39194,48.27,6519.76,4339.69,4865.63,3.81423
0.35274,-0.452545,47.2346,7023.01,4768.61,5155.87,3.84652
0.306795,-0.513152,46.196,7551.74,5227.27,5450.18,3.87805
0.266835,-0.573757,45.2026,8097.93,5705.82,5746.31,3.90837
0.232079,-0.634364,44.1587,8687.4,6232.46,6052.06,3.93889
0.201851,-0.694969,43.2046,9354.4,6818.56,6404.07,3.97102
0.17556,-0.755574,41.8365,10065.9,7499.65,6714.06,4.00285
0.152693,-0.816181,40.9849,10857.6,8196.22,7121.07,4.03573
0.132804,-0.876789,40.0511,11578.8,8863.25,7450.63,4.06366
0.115506,-0.937395,39.1375,12493.6,9690.48,7885.79,4.09669
0.100462,-0.997998,37.8525,13400.9,10581.2,8223.17,4.12713
0.0873764,-1.05861,29.9425,18373.7,15921.3,9170.87,4.2642
0.0759956,-1.11921,38.6205,19465.3,15208.2,12149.4,4.28926
0.0660971,-1.17982,98.2765,51038.8,-7347.02,50507.3,4.7079
0.0574878,-1.24042,50.9924,46070.5,28997.9,35799.6,4.66342
0.05,-1.30103,33.1517,40171.3,33632.4,21968,4.60392