File: membrane conductivity analysis/EIS data/Book14.csv
PVDF0.45-2(4),,,,,,
freq / Hz,Log(f / Hz),neg. Phase / бу,Z / Ohm,Z' / Ohm,Z'' / Ohm,Log(Z / Ohm)
50000,4.69897,55.1499,3.98777,2.27874,3.27256,0.60073
43487.4,4.63836,58.0207,4.51769,2.39262,3.83208,0.654916
37823.2,4.57776,57.468,5.4463,2.92887,4.59173,0.736102
32896.7,4.51715,57.4455,6.34428,3.41387,5.34747,0.802382
28611.8,4.45655,56.5812,7.40654,4.07918,6.182,0.869615
24885.1,4.39594,55.8886,8.51385,4.7746,7.04903,0.930126
21643.8,4.33533,55.9271,9.60458,5.38094,7.95572,0.982478
18824.7,4.27473,56.2804,10.7043,5.94228,8.90346,1.02956
16372.7,4.21412,56.4795,11.9371,6.59211,9.95185,1.0769
14240.2,4.15352,56.7428,13.2219,7.25088,11.0564,1.12129
12385.4,4.09291,57.0599,14.6444,7.96305,12.2901,1.16567
10772.2,4.0323,57.3547,16.1882,8.73249,13.6309,1.2092
9369.09,3.9717,57.5764,17.8718,9.58239,15.0857,1.25217
8148.75,3.91109,57.9158,19.7147,10.4718,16.7036,1.29479
7087.37,3.85049,58.2376,21.696,11.4207,18.4468,1.33638
6164.23,3.78988,58.5529,23.8943,12.4659,20.3848,1.37829
5361.34,3.72927,58.8368,26.2948,13.607,22.5004,1.41987
4663.02,3.66867,59.1583,28.9357,14.8344,24.8438,1.46143
4055.65,3.60806,59.507,31.8202,16.1466,27.4192,1.5027
3527.4,3.54745,59.8353,35.0141,17.5941,30.2726,1.54424
3067.95,3.48685,60.1245,38.5589,19.2069,33.4348,1.58612
2668.35,3.42624,60.4787,42.3932,20.8891,36.8894,1.6273
2320.79,3.36564,60.7609,46.6353,22.7792,40.6935,1.66871
2018.51,3.30503,61.0492,51.3193,24.8415,44.9062,1.71028
1755.6,3.24443,61.2805,56.5041,27.1514,49.5532,1.75208
1526.93,3.18382,61.5537,62.2269,29.6408,54.7138,1.79398
1328.04,3.12321,61.7166,68.5976,32.5038,60.408,1.83631
1155.06,3.0626,61.9741,75.5358,35.4921,66.6781,1.87815
1004.62,3.002,62.167,83.4572,38.9658,73.8022,1.92146
873.764,2.94139,62.3977,92.0542,42.6517,81.5771,1.96404
759.956,2.88079,62.839,101.436,46.3046,90.2499,2.00619
660.971,2.82018,62.9354,112.028,50.9722,99.7604,2.04933
574.878,2.75958,63.3904,123.924,55.5064,110.798,2.09316
500,2.69897,63.4531,136.392,60.9579,122.012,2.13479
434.875,2.63836,63.6494,150.757,66.9152,135.092,2.17828
378.232,2.57776,63.8244,166.702,73.5362,149.606,2.22194
328.967,2.51715,64.0237,184.392,80.7636,165.764,2.26574
286.118,2.45655,64.2058,203.941,88.7429,183.621,2.3095
248.851,2.39594,64.4345,225.64,97.3734,203.548,2.35342
216.438,2.33533,64.5646,249.616,107.208,225.421,2.39727
188.247,2.27473,64.7992,276.522,117.741,250.203,2.44173
163.727,2.21412,64.8707,305.742,129.837,276.804,2.48536
142.402,2.15352,65.0433,339.078,143.068,307.417,2.5303
123.854,2.09291,65.1807,375.88,157.779,341.163,2.57505
107.722,2.0323,65.3184,415.694,173.583,377.717,2.61877
93.6909,1.9717,65.4981,460.511,190.984,419.041,2.66324
81.4875,1.91109,65.5726,510.431,211.084,464.74,2.70794
70.8737,1.85049,65.774,565.942,232.227,516.102,2.75277
61.6423,1.78988,65.6043,628.762,259.702,572.623,2.79849
53.6134,1.72927,65.9692,696.173,283.501,635.834,2.84272
46.6302,1.66867,66.2443,772.109,311.034,706.69,2.88768
40.5565,1.60806,66.4037,857.139,343.104,785.472,2.93305
35.274,1.54745,66.5759,950.559,377.879,872.221,2.97798
30.6795,1.48685,66.7559,1054.26,416.065,968.691,3.02295
26.6835,1.42624,66.9559,1170.52,458.188,1077.12,3.06838
23.2079,1.36564,67.1127,1301.83,506.308,1199.34,3.11455
20.1851,1.30503,67.4014,1448.1,556.465,1336.92,3.1608
17.556,1.24443,67.6032,1607.84,612.618,1486.56,3.20624
15.2693,1.18382,67.8515,1788.5,674.276,1656.52,3.25249
13.2804,1.12321,68.1439,1986.9,739.676,1844.08,3.29818
11.5506,1.0626,68.425,2217.5,815.416,2062.13,3.34586
10.0462,1.002,68.7033,2470.61,897.319,2301.9,3.3928
8.73764,0.941394,69.0286,2754.59,985.871,2572.12,3.44006
7.59956,0.880788,69.2335,3076.53,1090.82,2876.66,3.48806
6.60971,0.820182,69.6347,3437.24,1196.17,3222.38,3.53621
5.74879,0.759576,69.9147,3839.1,1318.42,3605.62,3.58423
5,0.69897,70.265,4296.75,1450.88,4044.37,3.63314
4.34874,0.638363,70.6092,4800.79,1593.91,4528.47,3.68131
3.78232,0.577758,70.8772,5391.9,1766.35,5094.37,3.73174
3.28967,0.517152,71.2587,6012.98,1931.95,5694.16,3.77909
2.86118,0.456545,71.5836,6746.56,2131.38,6401.04,3.82908
2.48851,0.395939,71.9071,7586.19,2355.96,7211.09,3.88002
2.16438,0.335334,72.2169,8498.7,2595.63,8092.63,3.92935
1.88247,0.274728,72.3011,9598.97,2918.22,9144.62,3.98222
1.63727,0.21412,72.685,10686.7,3180.63,10202.4,4.02884
1.42402,0.153516,72.9511,11963,3507.42,11437.3,4.07784
1.23854,0.09291,73.3484,13352.6,3826.21,12792.7,4.12557
1.07722,0.0323044,73.1544,15295.5,4432.55,14639.2,4.18456
0.936909,-0.0283026,73.8821,16711.6,4639.38,16054.7,4.22302
0.814875,-0.088909,73.5329,19003.2,5386.75,18223.8,4.27883
0.708737,-0.149515,73.7237,21448.8,6011.45,20589.2,4.331403
0.616423,-0.210121,73.9183,24211.3,6706.72,23263.9,4.38402
0.536134,-0.270727,74.1052,27297.8,7476.12,26254.1,4.43613
0.466302,-0.331333,74.1925,31121.2,8477.62,29944.3,4.49306
0.405565,-0.39194,74.3408,35029,9454.83,33728.8,4.54443
0.35274,-0.452545,74.5186,39610.9,10573.2,38173.7,4.59781
0.306795,-0.513152,74.6683,44895.2,11870.6,43297.5,4.6522
0.266835,-0.573757,74.8115,50996.8,13361,49215.5,4.70754
0.232079,-0.634364,74.8392,58468.9,15291.3,56433.9,4.76692
0.201851,-0.694969,74.7766,68660.2,18029,66250.8,4.83671
0.17556,-0.755574,74.5687,82079.2,21839.9,79120.3,4.91423
0.152693,-0.816181,74.4729,98269.9,26306.3,94683.4,4.99242
0.132804,-0.876789,74.5579,123190,32801.2,118743,5.09058
0.115506,-0.937395,74.5563,164412,43781.4,158476,5.21593
0.100462,-0.997998,73.9589,257315,71103,247296,5.41047
0.0873764,-1.05861,74.8429,370882,96972.9,357980,5.56924
0.0759956,-1.11921,74.3538,485744,131003,467745,5.68641
0.0660971,-1.17982,73.9865,704268,194282,676940,5.84774
0.0574878,-1.24042,73.7667,870970,243479,836245,5.94
0.05,-1.30103,73.0276,1686110,492194,1612680,6.22689