File: membrane conductivity analysis/EIS data/Book4.csv
Sartorius_CelluloseNitrate0.45-3(2),,,,,,
freq / Hz,Log(f / Hz),neg. Phase / бу,Z / Ohm,Z' / Ohm,Z'' / Ohm,Log(Z / Ohm)
50000,4.69897,49.9261,3.85631,2.4826,2.95091,0.586172
43487.4,4.63836,51.3395,4.10278,2.56302,3.2037,0.613078
37823.2,4.57776,53.4474,4.4675,2.66066,3.58879,0.650065
32896.7,4.51715,53.5428,5.08201,3.01984,4.08747,0.706036
28611.8,4.45655,52.7736,5.84921,3.53857,4.65744,0.767097
24885.1,4.39594,52.1063,6.62436,4.06867,5.22762,0.821144
21643.8,4.33533,51.562,7.43462,4.62186,5.8234,0.871259
18824.7,4.27473,52.3474,8.12258,4.96186,6.43088,0.909694
16372.7,4.21412,52.3166,8.97989,5.48939,7.10669,0.953271
14240.2,4.15352,52.8254,9.82022,5.93383,7.82473,0.992121
12385.4,4.09291,52.8852,10.7556,6.49005,8.57679,1.03163
10772.2,4.0323,53.0392,11.7678,7.07558,9.403,1.0707
9369.09,3.9717,53.2302,12.8645,7.7007,10.3051,1.10939
8148.75,3.91109,53.3529,14.0519,8.38736,11.2742,1.14774
7087.37,3.85049,53.5489,15.2789,9.07773,12.2898,1.18409
6164.23,3.78988,53.7856,16.599,9.80684,13.3923,1.22008
5361.34,3.72927,53.8738,18.1308,10.6893,14.6446,1.25842
4663.02,3.66867,54.2175,19.7205,11.5308,15.9981,1.29492
4055.65,3.60806,53.1664,21.8028,13.0706,17.4505,1.33851
3527.4,3.54745,52.886,23.8775,14.4078,19.0408,1.37799
3067.95,3.48685,53.5295,25.7885,15.3289,20.7381,1.41143
2668.35,3.42624,54.58,27.7943,16.1086,22.6503,1.44396
2320.79,3.36564,54.5278,30.3791,17.6292,24.7407,1.48257
2018.51,3.30503,54.2259,33.2424,19.4332,26.9705,1.52169
1755.6,3.24443,54.4273,36.073,20.9849,29.341,1.55718
1526.93,3.18382,54.8272,39.1226,22.5364,31.9796,1.59243
1328.04,3.12321,55.456,42.3097,23.9913,34.8501,1.62644
1155.06,3.0626,55.7054,46.0161,25.9277,38.0163,1.66291
1004.62,3.002,55.7041,50.0254,28.1877,41.3279,1.69919
873.764,2.94139,55.064,54.9099,31.4447,45.0147,1.73965
759.956,2.88079,54.0973,60.4657,35.4577,48.9781,1.78151
660.971,2.82018,55.608,64.8637,36.6384,53.525,1.812
574.878,2.75958,55.7831,71.3507,40.1225,59.001,1.8534
500,2.69897,55.9463,78.2957,43.8432,64.869,1.89374
434.875,2.63836,56.1212,85.8746,47.8698,71.2947,1.93386
378.232,2.57776,56.2971,95.0847,52.7612,79.1035,1.97811
328.967,2.51715,56.4291,105.847,58.5298,88.1917,2.02468
286.118,2.45655,56.5518,116.642,64.2909,97.3242,2.06685
248.851,2.39594,56.1936,129.195,71.8824,107.351,2.11125
216.438,2.33533,56.6032,141.915,78.1147,118.482,2.15203
188.247,2.27473,56.5256,157.236,86.7257,131.155,2.19655
163.727,2.21412,56.6289,173.889,95.6496,145.219,2.24027
142.402,2.15352,56.6072,192.706,106.061,160.894,2.2849
123.854,2.09291,56.2666,213.443,118.531,177.506,2.32928
107.722,2.0323,56.1269,235.684,131.36,195.682,2.37233
93.6909,1.9717,56.2643,259.753,144.257,216.013,2.41456
81.4875,1.91109,56.3734,287.625,159.281,239.495,2.45883
70.8737,1.85049,55.3499,320.503,182.226,263.659,2.50583
61.6423,1.78988,56.4673,345.706,190.972,288.17,2.53871
53.6134,1.72927,56.891,380.399,207.787,318.635,2.58024
46.6302,1.66867,56.8436,425.428,232.678,356.161,2.62883
40.5565,1.60806,56.7097,480.685,263.839,401.805,2.68186
35.274,1.54745,56.3626,540.511,299.408,450.007,2.7328
30.6795,1.48685,55.8759,624.785,350.496,517.212,2.79573
26.6835,1.42624,55.7489,722.516,406.647,597.216,2.85885
23.2079,1.36564,55.2586,875.806,499.099,719.678,2.94241
20.1851,1.30503,55.5937,1107.47,625.782,913.716,3.04433
17.556,1.24443,55.5207,1369.53,775.302,1128.94,3.13657
15.2693,1.18382,55.7467,1629.52,917.177,1346.89,3.21206
13.2804,1.12321,56.0752,1823.56,1017.74,1513.14,3.26092
11.5506,1.0626,56.3198,2336.02,1295.46,1943.91,3.36848
10.0462,1.002,56.6024,3059.14,1683.89,2553.98,3.4856
8.73764,0.941394,57.1173,3722.77,2021.17,3126.32,3.57087
7.59956,0.880788,57.5523,4184.42,2245.07,3531.15,3.62164
6.60971,0.820182,58.1626,4639.72,2447.5,3941.67,3.66649
5.74879,0.759576,58.6413,5095.84,2651.84,4351.47,3.70722
5,0.69897,59.2084,5598.85,2866.15,4809.6,3.7481
4.34874,0.638363,59.4548,6154.31,3127.73,5300.27,3.78918
3.78232,0.577758,60.015,6735.31,3366.13,5833.83,3.82836
3.28967,0.517152,60.2664,7454.14,3697.02,6472.73,3.8724
2.86118,0.456545,60.6189,8182.94,4014.68,7130.42,3.91291
2.48851,0.395939,60.8901,9004.6,4380.61,7867.22,3.95446
2.16438,0.335334,61.0869,9897.61,4785.33,8663.91,3.99553
1.88247,0.274728,60.7889,11088.4,5411.48,9678.3,4.04487
1.63727,0.21412,61.9906,11815.7,5548.87,10431.8,4.07246
1.42402,0.153516,61.2098,13332.2,6420.83,11684.2,4.1249
1.23854,0.09291,61.5238,14555.1,6939.8,12794.2,4.16302
1.07722,0.0323044,60.6726,16395,8030.27,14293.7,4.21471
0.936909,-0.0283026,60.4012,18195.9,8987.38,15821.4,4.25997
0.814875,-0.088909,60.1056,19857.6,9897.08,17215.4,4.29793
0.708737,-0.149515,59.3984,22131.6,11266.5,19049.3,4.34501
0.616423,-0.210121,58.569,24748.9,12905.8,21117.5,4.39356
0.536134,-0.270727,57.5585,27640.8,14827.6,23327.2,4.44155
0.466302,-0.331333,56.6682,30507.5,16763.4,25489.1,4.48441
0.405565,-0.39194,55.6231,33529.3,18931.8,27673.1,4.52542
0.35274,-0.452545,54.5457,36950.1,21433,30098.8,4.56762
0.306795,-0.513152,53.5055,40571,24129.4,32615.6,4.60822
0.266835,-0.573757,51.5675,44291.6,27531.4,34695.4,4.64632
0.232079,-0.634364,50.2148,48039.2,30740.8,36915.7,4.6816
0.201851,-0.694969,48.0857,52243.9,34899.9,38877,4.71804
0.17556,-0.755574,45.9504,56771.3,39471.9,40803.7,4.75413
0.152693,-0.816181,43.9635,61196.9,44048.4,42482.9,4.78673
0.132804,-0.876789,41.6518,66147.2,49425,43961.5,4.82051
0.115506,-0.937395,39.9569,69844.2,53537.5,44854.7,4.84413
0.100462,-0.997998,37.8513,75424.6,59555.7,46281.6,4.87751
0.0873764,-1.05861,35.0414,79900.9,65417.8,45876.6,4.90255
0.0759956,-1.11921,32.1662,86618.5,73323.2,46113.7,4.93761
0.0660971,-1.17982,29.651,88761.9,77138.9,43911.9,4.94823
0.0574878,-1.24042,26.4199,94240,84397.4,41931.7,4.97424
0.05,-1.30103,7.64811,80983.8,80263.4,10778,4.9084