File: membrane conductivity analysis/EIS data/Book18.csv
PVDF0.2-1(3),,,,,,
freq / Hz,Log(f / Hz),neg. Phase / бу,Z / Ohm,Z' / Ohm,Z'' / Ohm,Log(Z / Ohm)
50000,4.69897,56.4107,4.53214,2.50734,3.77539,0.656303
43487.4,4.63836,56.3636,5.42627,3.00572,4.51774,0.7345014
37823.2,4.57776,56.3416,6.39402,3.54382,5.32211,0.805774
32896.7,4.51715,56.4363,7.37055,4.07492,6.14167,0.8675
28611.8,4.45655,55.8157,8.4964,4.77376,7.02852,0.929235
24885.1,4.39594,53.52,9.93185,5.9049,7.98585,0.99703
21643.8,4.33533,53.9821,11.01,6.47431,8.90528,1.04179
18824.7,4.27473,54.6234,12.1597,7.03986,9.91462,1.08492
16372.7,4.21412,54.8221,13.4415,7.7439,10.9867,1.12845
14240.2,4.15352,54.994,14.8429,8.51479,12.1577,1.17152
12385.4,4.09291,55.1869,16.3495,9.33393,13.4232,1.2135
10772.2,4.0323,55.3945,17.9785,10.2104,14.7978,1.25475
9369.09,3.9717,55.5344,19.7526,11.1782,16.2853,1.29562
8148.75,3.91109,55.7669,21.6388,12.1731,17.89,1.33523
7087.37,3.85049,55.9468,23.6848,13.2626,19.6233,1.37447
6164.23,3.78988,56.1799,25.9602,14.4491,21.5674,1.41431
5361.34,3.72927,56.3727,28.4462,15.7532,23.686,1.45402
4663.02,3.66867,56.5852,31.123,17.1393,25.9786,1.49308
4055.65,3.60806,56.854,34.0254,18.6042,28.4888,1.5318
3527.4,3.54745,57.1047,37.2173,20.2129,31.25,1.57074
3067.95,3.48685,57.4064,40.7208,21.9354,34.3078,1.60982
2668.35,3.42624,57.628,44.5633,23.8598,37.6377,1.64898
2320.79,3.36564,57.9594,48.7525,25.8642,41.3262,1.688
2018.51,3.30503,58.2292,53.3209,28.0747,45.3313,1.7269
1755.6,3.24443,58.5169,58.4514,30.5261,49.8471,1.76679
1526.93,3.18382,58.8827,64.1557,33.1551,54.9244,1.80724
1328.04,3.12321,59.11,70.4136,36.1498,60.4258,1.84766
1155.06,3.0626,59.3476,77.0363,39.2752,66.2725,1.8867
1004.62,3.002,59.7637,84.6082,42.6059,73.0978,1.92741
873.764,2.94139,59.631,92.9781,47.0067,80.2203,1.96838
759.956,2.88079,60.1084,102.314,50.9896,88.7035,2.00994
660.971,2.82018,60.1264,112.591,56.0805,97.631,2.0515
574.878,2.75958,60.6113,123.736,60.7212,107.813,2.0925
500,2.69897,60.8039,135.866,66.2755,118.605,2.13311
434.875,2.63836,61.0795,149.66,72.3751,130.996,2.17511
378.232,2.57776,61.2378,164.863,79.3281,144.523,2.21712
328.967,2.51715,61.436,181.607,86.8336,159.502,2.25913
286.118,2.45655,61.6462,200.058,95.0104,176.057,2.30116
248.851,2.39594,61.8708,220.415,103.917,194.381,2.34324
216.438,2.33533,62.0139,242.886,113.976,214.483,2.3854
188.247,2.27473,62.0962,267.89,125.369,236.744,2.42796
163.727,2.21412,62.2962,295.367,137.316,261.506,2.47036
142.402,2.15352,62.459,326.49,150.963,289.492,2.51387
123.854,2.09291,62.4949,360.091,166.3,319.39,2.55641
107.722,2.0323,62.614,396.599,182.429,352.152,2.59835
93.6909,1.9717,62.7642,437.871,200.393,389.324,2.64135
81.4875,1.91109,62.7698,482.96,220.987,429.436,2.68391
70.8737,1.85049,62.8527,532.663,243.044,473.983,2.72645
61.6423,1.78988,63.2739,589.971,265.326,526.942,2.77083
53.6134,1.72927,63.1715,649.916,293.321,579.96,2.81286
46.6302,1.66867,63.3286,715.981,321.385,639.798,2.8549
40.5565,1.60806,63.5046,790.132,352.498,707.145,2.8977
35.274,1.54745,63.6667,870.462,386.13,780.134,2.93975
30.6795,1.48685,63.8459,960.918,423.56,862.532,2.98269
26.6835,1.42624,64.0835,1062.01,464.163,955.206,3.02613
23.2079,1.36564,64.3197,1173.41,508.499,1057.51,3.06945
20.1851,1.30503,64.5634,1297.45,557.273,1171.68,3.11309
17.556,1.24443,64.818,1432.55,609.541,1296.4,3.15611
15.2693,1.18382,65.1308,1584.85,666.507,1437.89,3.19999
13.2804,1.12321,65.4545,1753.24,728.325,1594.81,3.24384
11.5506,1.0626,65.8246,1941.17,794.967,1770.92,3.28806
10.0462,1.002,66.1768,2155.44,870.614,1971.79,3.33354
8.73764,0.941394,66.5449,2389.08,950.925,2191.68,3.37823
7.59956,0.880788,66.8142,2649.43,1043.12,2435.44,3.42315
6.60971,0.820182,67.2202,2945.17,1140.34,2715.45,3.46911
5.74879,0.759576,67.6012,3273.39,1247.33,3026.43,3.515
5,0.69897,67.9994,3649.72,1367.25,3383.95,3.56226
4.34874,0.638363,68.4831,4040.59,1481.99,3759,3.60644
3.78232,0.577758,68.7787,4517.69,1635.27,4211.34,3.65492
3.28967,0.517152,69.2313,5021.81,1780.71,4695.49,3.70086
2.86118,0.456545,69.5582,5608.05,1958.65,5254.9,3.74881
2.48851,0.395939,69.9297,6284.99,2156.83,5903.32,3.7983
2.16438,0.335334,70.4038,6973.67,2338.89,6569.75,3.84346
1.88247,0.274728,70.9563,7675.44,2504.41,7255.36,3.8851
1.63727,0.21412,70.9724,8682.15,2830.58,8207.77,3.93863
1.42402,0.153516,71.3187,9680.45,3100.68,9170.44,3.9859
1.23854,0.09291,71.2096,11051.5,3559.77,10462.5,4.04342
1.07722,0.0323044,71.7782,12172.3,3806.24,11561.9,4.08537
0.936909,-0.0283026,72.2203,13474.7,4114.63,12831.2,4.12952
0.814875,-0.088909,71.753,15359.8,4809.37,14587.4,4.18639
0.708737,-0.149515,72.1632,17078.6,5231.31,16257.7,4.23245
0.616423,-0.210121,72.3339,19232.7,5836.53,18325.7,4.28404
0.536134,-0.270727,72.5484,21604.9,6479.34,20610.5,4.33455
0.466302,-0.331333,72.7541,24285.3,7199.94,23193.5,4.38534
0.405565,-0.39194,73.0186,27165.4,7934,25981,4.43402
0.35274,-0.452545,73.1037,30584.3,8889.02,29264.1,4.4855
0.306795,-0.513152,73.2199,34456.9,9947.68,32989.7,4.53728
0.266835,-0.573757,73.4253,38521.4,10988.8,36920.8,4.5857
0.232079,-0.634364,73.5094,43459,12336.2,41671.3,4.63808
0.201851,-0.694969,73.4441,49359.6,14065,47313.2,4.69337
0.17556,-0.755574,73.7951,54667.4,15256.2,52495.5,4.73773
0.152693,-0.816181,73.6666,62562,17594,60037.1,4.79631
0.132804,-0.876789,73.7304,70844.7,19847.6,68007.6,4.85031
0.115506,-0.937395,73.6554,81007.3,22796.5,77733.5,4.90852
0.100462,-0.997998,73.6155,93200.8,26290.3,89415.9,4.96942
0.0873764,-1.05861,73.5553,107936,30555.5,103520,5.03317
0.0759956,-1.11921,73.4199,126961,36229,121682,5.10367
0.0660971,-1.17982,73.2094,151759,43839.3,145289,5.18115
0.0574878,-1.24042,71.9916,209813,64865.1,199535,5.32183
0.05,-1.30103,67.7517,2334540,883907,2160730,6.3682