File: membrane conductivity analysis/EIS data/Book20.csv
PES0.45-2(5),,,,,,
freq / Hz,Log(f / Hz),neg. Phase / бу,Z / Ohm,Z' / Ohm,Z'' / Ohm,Log(Z / Ohm)
50000,4.69897,61.6881,2.85515,1.35412,2.51362,0.455629
43487.4,4.63836,59.6453,3.62705,1.83294,3.12983,0.559554
37823.2,4.57776,58.6105,4.46268,2.3244,3.80956,0.649596
32896.7,4.51715,58.0129,5.33205,2.82454,4.52247,0.726894
28611.8,4.45655,57.7761,6.1939,3.30277,5.23986,0.791964
24885.1,4.39594,57.5929,7.12203,3.81691,6.01286,0.852604
21643.8,4.33533,57.4262,8.1158,4.36943,6.83918,0.909331
18824.7,4.27473,56.0588,9.31396,5.20038,7.72696,0.969134
16372.7,4.21412,56.4556,10.3796,5.73559,8.65097,1.01618
14240.2,4.15352,56.8107,11.5229,6.30772,9.64313,1.06156
12385.4,4.09291,57.0779,12.7979,6.95564,10.7427,1.10714
10772.2,4.0323,57.4592,14.1567,7.61488,11.9342,1.15096
9369.09,3.9717,57.7587,15.6531,8.35073,13.2396,1.1946
8148.75,3.91109,58.0973,17.282,9.13314,14.6715,1.23759
7087.37,3.85049,58.3237,19.0639,10.0108,16.2239,1.28021
6164.23,3.78988,58.6317,21.0405,10.9524,17.9652,1.32306
5361.34,3.72927,58.9624,23.164,11.9433,19.8476,1.36481
4663.02,3.66867,59.2809,25.5338,13.0434,21.9509,1.40712
4055.65,3.60806,59.5152,28.1223,14.2667,24.2348,1.44905
3527.4,3.54745,59.7597,31.0003,15.6126,26.7818,1.49137
3067.95,3.48685,60.0111,34.1014,17.0449,29.536,1.53277
2668.35,3.42624,60.2584,37.6001,18.653,32.6471,1.575189
2320.79,3.36564,60.4962,41.42,20.3986,36.0488,1.61721
2018.51,3.30503,60.8045,45.6005,22.2435,39.8074,1.65897
1755.6,3.24443,60.954,50.226,24.3853,43.9091,1.70093
1526.93,3.18382,61.1334,55.4351,26.7625,48.5471,1.74378
1328.04,3.12321,61.4688,60.8699,29.0738,53.4777,1.7844
1155.06,3.0626,61.5897,67.2171,31.9807,59.1217,1.82748
1004.62,3.002,61.9146,74.1559,34.9116,65.4238,1.87015
873.764,2.94139,61.9574,81.6176,38.3707,72.0356,1.91178
759.956,2.88079,62.2903,90.1931,41.939,79.8493,1.95517
660.971,2.82018,62.317,99.4649,46.2093,88.0794,1.99767
574.878,2.75958,62.4512,109.749,50.7595,97.3056,2.0404
500,2.69897,62.642,121.003,55.6066,107.469,2.0828
434.875,2.63836,62.8512,133.534,60.932,118.822,2.12559
378.232,2.57776,63,147.3,66.8729,131.245,2.1682
328.967,2.51715,63.1435,162.731,73.5148,145.179,2.21147
286.118,2.45655,63.2545,179.664,80.8538,160.442,2.25446
248.851,2.39594,63.4424,198.537,88.7654,177.588,2.29784
216.438,2.33533,63.5849,219.381,97.5962,196.476,2.3412
188.247,2.27473,63.7845,242.531,107.137,217.584,2.38477
163.727,2.21412,63.9137,268.305,117.98,240.974,2.42863
142.402,2.15352,64.0879,296.237,129.453,266.455,2.47164
123.854,2.09291,64.1924,328.063,142.822,295.342,2.51596
107.722,2.0323,64.3781,362.706,156.845,327.04,2.55955
93.6909,1.9717,64.5484,401.458,172.526,362.496,2.60364
81.4875,1.91109,64.5794,444.325,190.731,401.306,2.6477
70.8737,1.85049,64.7131,491.314,209.866,444.236,2.69136
61.6423,1.78988,65.1742,544.625,228.667,494.296,2.7361
53.6134,1.72927,65.1134,603.054,253.78,547.056,2.78036
46.6302,1.66867,65.223,666.632,279.377,605.266,2.82389
40.5565,1.60806,65.4017,738.117,307.245,671.132,2.86813
35.274,1.54745,65.5525,816.823,338.05,743.587,2.91213
30.6795,1.48685,65.7296,904.279,371.698,824.356,2.9563
26.6835,1.42624,65.872,1002.21,409.678,914.647,3.00096
23.2079,1.36564,66.0107,1110.9,451.653,1014.94,3.04567
20.1851,1.30503,66.2192,1232.09,496.826,1127.48,3.09064
17.556,1.24443,66.3897,1364.42,546.47,1250.21,3.13495
15.2693,1.18382,66.6115,1513.34,600.741,1389,3.17994
13.2804,1.12321,66.8356,1676.44,659.463,1541.29,3.22439
11.5506,1.0626,67.0888,1858.57,723.55,1711.95,3.26918
10.0462,1.002,67.329,2067.4,796.858,1907.66,3.31542
8.73764,0.941394,67.617,2293,873.167,2120.25,3.3604
7.59956,0.880788,67.7442,2546.02,964.285,2356.35,3.40586
6.60971,0.820182,68.085,2830.45,1056.41,2625.92,3.45186
5.74879,0.759576,68.417,3138.03,1154.32,2918.01,3.49666
5,0.69897,68.7765,3501.15,1267.44,3263.69,3.54421
4.34874,0.638363,69.0601,3893.8,1391.6,3636.64,3.59037
3.78232,0.577758,69.4321,4332.86,1522.21,4056.67,3.63677
3.28967,0.517152,69.9296,4826.78,1656.43,4533.66,3.68366
2.86118,0.456545,70.1923,5378.4,1822.55,5060.19,3.73065
2.48851,0.395939,70.6174,6019.44,1997.7,5678.28,3.77956
2.16438,0.335334,70.8469,6719.4,2204.59,6347.45,3.82733
1.88247,0.274728,71.0761,7513.36,2436.67,7107.26,3.87583
1.63727,0.21412,71.3282,8445.06,2703.66,8000.58,3.9266
1.42402,0.153516,71.9679,9321.42,2885.44,8863.59,3.96948
1.23854,0.09291,72.4985,10347,3111.64,9867.99,4.01481
1.07722,0.0323044,72.7626,11593.4,3435.49,11072.7,4.06421
0.936909,-0.0283026,72.7015,13240.6,3937.11,12641.7,4.12191
0.814875,-0.088909,72.8528,14750.3,4348.79,14094.6,4.1688
0.708737,-0.149515,73.0565,16638.5,4848.94,15916.3,4.22111
0.616423,-0.210121,73.5599,18466.4,5226.21,17711.4,4.26638
0.536134,-0.270727,73.812,20767.1,5789.64,19943.7,4.31738
0.466302,-0.331333,73.9754,23462.8,6476.93,22551.1,4.37038
0.405565,-0.39194,74.2684,26281.3,7125.7,25296.8,4.41965
0.35274,-0.452545,74.4413,29555.5,7927.52,28472.5,4.47064
0.306795,-0.513152,74.799,33004.9,8654.09,31850.1,4.51858
0.266835,-0.573757,74.8556,37309.5,9747.2,36013.7,4.57182
0.232079,-0.634364,74.8231,42427.6,11107.5,40947.9,4.62765
0.201851,-0.694969,75.1584,47305.9,12117.3,45727.6,4.67492
0.17556,-0.755574,75.3208,53181.3,13476.5,51445.5,4.72576
0.152693,-0.816181,75.431,59913.9,15071.1,57987.4,4.77753
0.132804,-0.876789,75.282,68666.1,17445.5,66413,4.83674
0.115506,-0.937395,75.5102,76702.5,19191.6,74262.7,4.88481
0.100462,-0.997998,75.5354,86910.6,21708.7,84155.7,4.93907
0.0873764,-1.05861,75.3784,99277.2,25061,96062.1,4.99685
0.0759956,-1.11921,75.5759,112071,27916.5,108538,5.04949
0.0660971,-1.17982,75.4158,127217,32033.5,123118,5.10455
0.0574878,-1.24042,75.3475,146107,36958.6,141355,5.16467
0.05,-1.30103,75.1672,172281,44103.8,166540,5.23624