File: membrane conductivity analysis/EIS data/Book12.csv
PVDF5-1(6),,,,,,
freq / Hz,Log(f / Hz),neg. Phase / бу,Z / Ohm,Z' / Ohm,Z'' / Ohm,Log(Z / Ohm)
50000,4.69897,45.0703,11.2394,7.93771,7.95721,1.05074
43487.4,4.63836,45.6299,12.1198,8.47528,8.66371,1.0835
37823.2,4.57776,46.507,12.7073,8.74603,9.21865,1.10405
32896.7,4.51715,47.5768,13.2036,8.90717,9.74666,1.12069
28611.8,4.45655,47.9223,13.8541,9.28417,10.283,1.14158
24885.1,4.39594,47.9856,14.7335,9.86139,10.9466,1.16831
21643.8,4.33533,48.2593,15.7342,10.4752,11.7403,1.19684
18824.7,4.27473,48.516,16.9297,11.2145,12.6828,1.22865
16372.7,4.21412,48.7855,18.2497,12.0243,13.7283,1.26126
14240.2,4.15352,49.1507,19.6845,12.8751,14.89,1.29412
12385.4,4.09291,49.4626,21.2927,13.8391,16.1821,1.32823
10772.2,4.0323,49.8035,23.0521,14.8781,17.608,1.36271
9369.09,3.9717,50.165,24.932,15.9709,19.1451,1.39676
8148.75,3.91109,50.5446,27.0219,17.1718,20.8642,1.43172
7087.37,3.85049,50.9157,29.2826,18.4616,22.7297,1.46661
6164.23,3.78988,51.2015,31.7684,19.9055,24.7589,1.502
5361.34,3.72927,51.4631,34.4998,21.494,26.986,1.53782
4663.02,3.66867,51.7438,37.4213,23.1705,29.385,1.57312
4055.65,3.60806,52.0438,40.6385,24.9951,32.0427,1.60894
3527.4,3.54745,52.2979,44.0993,26.9692,34.8914,1.64443
3067.95,3.48685,52.4433,47.9025,29.1988,37.9748,1.68036
2668.35,3.42624,52.6678,52.0002,31.5348,41.3471,1.71601
2320.79,3.36564,52.7766,56.5091,34.1837,44.9973,1.75212
2018.51,3.30503,52.8885,61.3536,37.0188,48.9273,1.78784
1755.6,3.24443,53.0089,66.668,40.1135,53.2497,1.82392
1526.93,3.18382,52.9926,72.5207,43.6516,57.912,1.86046
1328.04,3.12321,53.1699,78.9914,47.3509,63.2261,1.89758
1155.06,3.0626,53.1203,85.8044,51.4944,68.6347,1.93351
1004.62,3.002,53.0158,93.4573,56.2234,74.6538,1.97061
873.764,2.94139,52.8723,101.121,61.036,80.623,2.00484
759.956,2.88079,52.8495,110.022,66.4437,87.6936,2.04148
660.971,2.82018,52.6921,119.466,72.4083,95.0224,2.07724
574.878,2.75958,52.6172,129.744,78.7722,103.094,2.11309
500,2.69897,52.3962,140.563,85.7713,111.361,2.14787
434.875,2.63836,52.1732,152.495,93.5217,120.451,2.18326
378.232,2.57776,51.9548,165.289,101.865,130.169,2.21824
328.967,2.51715,51.7034,179.089,110.987,140.551,2.25307
286.118,2.45655,51.3682,193.729,120.948,151.336,2.28719
248.851,2.39594,51.0893,209.66,131.689,163.142,2.32152
216.438,2.33533,50.804,226.695,143.265,175.686,2.35544
188.247,2.27473,50.4665,245.07,155.994,189.011,2.38929
163.727,2.21412,50.2215,264.311,169.112,203.13,2.42212
142.402,2.15352,49.9025,284.884,183.491,217.922,2.45467
123.854,2.09291,49.5884,307.672,199.456,234.264,2.48809
107.722,2.0323,49.2679,331.621,216.39,251.292,2.52064
93.6909,1.9717,48.9242,356.867,234.482,269.021,2.55251
81.4875,1.91109,48.6834,383.934,253.48,288.362,2.58426
70.8737,1.85049,48.4643,412.355,273.427,308.665,2.61527
61.6423,1.78988,48.1002,443.122,295.93,329.822,2.64652
53.6134,1.72927,48.1777,476.719,317.887,355.259,2.67826
46.6302,1.66867,48.0212,511.456,342.09,380.213,2.70881
40.5565,1.60806,47.9676,549.453,367.887,408.115,2.73993
35.274,1.54745,47.9489,589.114,394.585,437.446,2.7702
30.6795,1.48685,47.9543,632.389,423.526,469.619,2.80098
26.6835,1.42624,48.0404,679.363,454.226,505.186,2.8321
23.2079,1.36564,48.185,730.014,486.721,544.08,2.86333
20.1851,1.30503,48.3755,784.532,521.122,586.449,2.89461
17.556,1.24443,48.5484,842.621,557.804,631.557,2.92563
15.2693,1.18382,48.7828,905.139,596.411,680.861,2.95672
13.2804,1.12321,49.0094,972.351,637.8,733.947,2.98782
11.5506,1.0626,49.3508,1047.06,682.085,794.42,3.01997
10.0462,1.002,49.7094,1131.74,731.855,863.26,3.05375
8.73764,0.941394,50.0527,1219.37,782.935,934.812,3.08614
7.59956,0.880788,50.2432,1315.1,841.044,1011,3.11896
6.60971,0.820182,50.6333,1423.25,902.742,1100.32,3.15328
5.74879,0.759576,51.0002,1537.6,967.636,1194.94,3.18684
5,0.69897,51.4172,1666.6,1039.37,1302.8,3.22183
4.34874,0.638363,51.8544,1801.57,1112.76,1416.83,3.25565
3.78232,0.577758,52.2389,1957.38,1198.64,1547.45,3.29168
3.28967,0.517152,52.5537,2125.34,1292.24,1687.36,3.32743
2.86118,0.456545,52.958,2307.85,1390.25,1842.11,3.36321
2.48851,0.395939,53.2624,2513.58,1503.5,2014.35,3.40029
2.16438,0.335334,53.6394,2726.01,1616.16,2195.26,3.43553
1.88247,0.274728,53.8869,2960.77,1745.02,2391.87,3.4714
1.63727,0.21412,54.2788,3208.34,1873.16,2604.75,3.50628
1.42402,0.153516,54.2872,3508.14,2047.78,2848.45,3.54508
1.23854,0.09291,54.3295,3841.26,2239.93,3120.58,3.58447
1.07722,0.0323044,54.6773,4164.57,2407.87,3397.91,3.61957
0.936909,-0.0283026,54.6752,4548.32,2629.89,3710.92,3.65785
0.814875,-0.088909,54.193,4993.55,2921.51,4049.73,3.69841
0.708737,-0.149515,54.2626,5441.13,3178.01,4416.58,3.73569
0.616423,-0.210121,54.3002,5938.97,3465.61,4822.96,3.77371
0.536134,-0.270727,54.1471,6501.67,3808.07,5269.75,3.81302
0.466302,-0.331333,53.9351,7111.97,4186.83,5748.96,3.85199
0.405565,-0.39194,53.7559,7756.34,4585.75,6255.53,3.88966
0.35274,-0.452545,53.4556,8473.54,5045.54,6807.61,3.92806
0.306795,-0.513152,52.9962,9270.76,5579.78,7403.58,3.96712
0.266835,-0.573757,52.6283,10099.7,6130.34,8026.37,4.00431
0.232079,-0.634364,52.1326,11018.4,6763.51,8698.31,4.04212
0.201851,-0.694969,51.4935,12023.8,7486.06,9409.08,4.08004
0.17556,-0.755574,50.832,13181.6,8325.47,10219.7,4.11997
0.152693,-0.816181,49.9635,14310.9,9205.84,10956.9,4.15567
0.132804,-0.876789,49.2298,15565.4,10164.6,11788.2,4.19216
0.115506,-0.937395,48.1636,16959.6,11312.2,12635.8,4.22942
0.100462,-0.997998,47.1295,18392.6,12513.3,13479.8,4.26464
0.0873764,-1.05861,46.1467,19997.1,13854.3,14420.2,4.30097
0.0759956,-1.11921,44.8441,21723,15402.2,15318.6,4.33692
0.0660971,-1.17982,43.3259,23465.8,17070.5,16101,4.37044
0.0574878,-1.24042,42.1049,25354.7,18811.1,17000.1,4.40406
0.05,-1.30103,40.8401,27440.6,20759.9,17944.8,4.43839