File: membrane conductivity analysis/EIS data/Book11.csv
PVDF5-2(6),,,,,,
freq / Hz,Log(f / Hz),neg. Phase / бу,Z / Ohm,Z' / Ohm,Z'' / Ohm,Log(Z / Ohm)
50000,4.69897,45.8801,3.61476,2.51646,2.59498,0.558079
43487.4,4.63836,47.3391,4.15519,2.8158,3.05563,0.618591
37823.2,4.57776,46.6698,5.02395,3.44744,3.65448,0.701045
32896.7,4.51715,48.1553,5.6695,3.7822,4.22353,0.753545
28611.8,4.45655,49.1112,6.40645,4.19362,4.84315,0.806617
24885.1,4.39594,50.3096,7.18908,4.59123,5.53204,0.856673
21643.8,4.33533,51.2808,8.03169,5.02385,6.26649,0.904807
18824.7,4.27473,51.7807,8.98962,5.56163,7.06268,0.953741
16372.7,4.21412,52.7702,9.97143,6.03284,7.93941,0.998757
14240.2,4.15352,53.6235,11.0158,6.53336,8.86926,1.04202
12385.4,4.09291,54.1804,12.229,7.15683,9.91605,1.08739
10772.2,4.0323,54.979,13.5114,7.75387,11.0651,1.1307
9369.09,3.9717,55.7301,14.8982,8.38906,12.3118,1.17313
8148.75,3.91109,56.506,16.4502,9.07806,13.7186,1.21617
7087.37,3.85049,57.1151,18.158,9.85893,15.2484,1.25907
6164.23,3.78988,57.6653,20.0271,10.7118,16.9217,1.30162
5361.34,3.72927,58.2349,22.1059,11.6374,18.7947,1.34451
4663.02,3.66867,58.7175,24.3883,12.6638,20.8426,1.38718
4055.65,3.60806,59.1952,26.8989,13.7753,23.1039,1.42973
3527.4,3.54745,59.8502,29.6261,14.8801,25.6181,1.47167
3067.95,3.48685,60.2992,32.7033,16.2035,28.4069,1.51459
2668.35,3.42624,60.7173,36.0555,17.6354,31.4482,1.55697
2320.79,3.36564,61.0267,39.848,19.3024,34.8608,1.60041
2018.51,3.30503,61.3991,44.0196,21.0724,38.6482,1.64365
1755.6,3.24443,61.7159,48.6377,23.0467,42.8308,1.68697
1526.93,3.18382,62.106,53.6893,25.1179,47.4514,1.72989
1328.04,3.12321,62.3466,59.2157,27.4833,52.4516,1.77244
1155.06,3.0626,62.6671,65.5556,30.1005,58.2366,1.81661
1004.62,3.002,63.0405,72.4209,32.8328,64.5507,1.85986
873.764,2.94139,63.2334,80.1688,36.1046,71.5786,1.90401
759.956,2.88079,63.6005,88.4727,39.3374,79.2464,1.94681
660.971,2.82018,63.846,97.8359,43.1247,87.8187,1.9905
574.878,2.75958,64.0185,108.307,47.4472,97.3612,2.03466
500,2.69897,64.348,119.9,51.9051,108.082,2.07882
434.875,2.63836,64.5888,132.624,56.9105,119.793,2.12262
378.232,2.57776,64.8701,146.866,62.3702,132.965,2.16692
328.967,2.51715,65.1192,162.846,68.5145,147.731,2.21178
286.118,2.45655,65.3452,180.562,75.3216,164.101,2.25663
248.851,2.39594,65.5565,200.251,82.863,182.303,2.30157
216.438,2.33533,65.7802,222.041,91.0897,202.497,2.34643
188.247,2.27473,66.0092,246.543,100.242,225.245,2.39189
163.727,2.21412,66.2599,273.623,110.157,250.469,2.43715
142.402,2.15352,66.4311,304.206,121.637,278.829,2.48317
123.854,2.09291,66.6543,337.826,133.873,310.168,2.52869
107.722,2.0323,66.8977,375.037,147.155,344.962,2.57407
93.6909,1.9717,67.0472,417.594,162.85,384.532,2.62075
81.4875,1.91109,67.2301,464.177,179.651,428.002,2.66668
70.8737,1.85049,67.3937,516.124,198.396,476.469,2.71275
61.6423,1.78988,67.4923,576.678,220.757,532.752,2.76093
53.6134,1.72927,67.9213,639.287,240.296,592.407,2.8057
46.6302,1.66867,68.0706,712.539,266.108,660.983,2.85281
40.5565,1.60806,68.3328,794.323,293.275,738.199,2.9
35.274,1.54745,68.5094,883.171,323.548,821.771,2.94604
30.6795,1.48685,68.6917,983.78,357.492,916.527,2.9929
26.6835,1.42624,68.9037,1097.3,394.959,1023.75,3.04033
23.2079,1.36564,69.1058,1224.45,436.695,1143.93,3.08794
20.1851,1.30503,69.2928,1367.2,483.432,1278.88,3.13583
17.556,1.24443,69.474,1523.1,534.048,1426.4,3.18273
15.2693,1.18382,69.6821,1701.17,590.695,1595.33,3.23075
13.2804,1.12321,69.9051,1896.94,651.743,1781.46,3.27805
11.5506,1.0626,70.0878,2120.49,722.194,1993.72,3.32644
10.0462,1.002,70.3013,2373.45,800.03,2234.55,3.37538
8.73764,0.941394,70.5524,2650.58,882.496,2499.35,3.42334
7.59956,0.880788,70.6532,2959.51,980.442,2792.39,3.47122
6.60971,0.820182,70.8844,3317.26,1086.32,3134.34,3.52078
5.74879,0.759576,71.1595,3705.51,1196.64,3506.97,3.56885
5,0.69897,71.3388,4168.45,1333.78,3949.3,3.61997
4.34874,0.638363,71.5752,4651.23,1470.07,4412.81,3.66757
3.78232,0.577758,71.9074,5203.14,1615.86,4945.87,3.71627
3.28967,0.517152,72.0849,5856.11,1801.38,5572.16,3.76761
2.86118,0.456545,72.3755,6549.78,1983.12,6242.34,3.81623
2.48851,0.395939,72.5491,7389.44,2216.01,7049.33,3.86861
2.16438,0.335334,72.8187,8280.61,2446.06,7911.09,3.91806
1.88247,0.274728,73.1058,9222.84,2680.2,8824.81,3.96486
1.63727,0.21412,73.4944,10243.4,2910.25,9821.3,4.01044
1.42402,0.153516,73.5271,11626.1,3296.71,11148.9,4.06543
1.23854,0.09291,73.8071,13025.2,3632.37,12508.5,4.11478
1.07722,0.0323044,73.9118,14721.2,4079.49,14144.7,4.16794
0.936909,-0.0283026,74.3231,16343.7,4416.26,15735.7,4.21335
0.814875,-0.088909,73.9043,18714.3,5188.4,17980.7,4.27217
0.708737,-0.149515,74.1671,20991.2,5727.1,20194.8,4.32204
0.616423,-0.210121,74.595,23408.5,6218.22,22567.5,4.36937
0.536134,-0.270727,74.8031,26392.6,6918.47,25469.7,4.42148
0.466302,-0.331333,74.8117,30139.5,7896.32,29086.8,4.47914
0.405565,-0.39194,75.0787,33926.5,8735.8,32782.5,4.53054
0.35274,-0.452545,75.2698,38298,9737.95,37039.3,4.58318
0.306795,-0.513152,75.5359,43205.2,10791.5,41835.8,4.63554
0.266835,-0.573757,75.662,48920.7,12114.8,47396.9,4.68949
0.232079,-0.634364,75.4828,56526.3,14169.5,54721.6,4.75225
0.201851,-0.694969,75.7131,63810.1,15746.9,61836.6,4.80489
0.17556,-0.755574,75.6928,73273.2,18107.3,71000.7,4.86495
0.152693,-0.816181,75.8593,83351.4,20363.1,80825.7,4.92091
0.132804,-0.876789,75.8286,96832.8,23706.9,93885.9,4.98602
0.115506,-0.937395,75.9268,111808,27187.3,108452,5.04847
0.100462,-0.997998,75.8181,133837,32790.1,129758,5.12658
0.0873764,-1.05861,75.2669,162386,41297.3,157047,5.21055
0.0759956,-1.11921,75.1802,210577,53861.4,203573,5.32341
0.0660971,-1.17982,74.6887,305596,80696.7,294749,5.48515
0.0574878,-1.24042,74.1279,492837,134787,474047,5.6927
0.05,-1.30103,73.5243,790041,224062,757603,5.89765