File: membrane conductivity analysis/EIS data/Book13.csv
PVDF0.45-3(4),,,,,,
freq / Hz,Log(f / Hz),neg. Phase / бу,Z / Ohm,Z' / Ohm,Z'' / Ohm,Log(Z / Ohm)
50000,4.69897,53.4046,2.38349,1.42094,1.91362,0.377213
43487.4,4.63836,47.9004,3.04084,2.03864,2.25624,0.482994
37823.2,4.57776,49.0299,3.37285,2.21146,2.54668,0.527997
32896.7,4.51715,51.5698,3.74532,2.32794,2.93395,0.573489
28611.8,4.45655,52.1233,4.36696,2.68116,3.44699,0.640179
24885.1,4.39594,51.2861,5.2152,3.26175,4.06931,0.717271
21643.8,4.33533,52.5425,6.00073,3.64948,4.76341,0.778204
18824.7,4.27473,53.7786,6.76898,3.99983,5.46081,0.830523
16372.7,4.21412,53.0441,7.80657,4.69331,6.23822,0.89246
14240.2,4.15352,54.2969,8.64998,5.048,7.02423,0.937015
12385.4,4.09291,55.0396,9.60673,5.50476,7.87317,0.982576
10772.2,4.0323,55.5427,10.6855,6.04574,8.81068,1.02879
9369.09,3.9717,56.2671,11.801,6.55337,9.81413,1.07192
8148.75,3.91109,56.7206,13.0769,7.17556,10.9323,1.1165
7087.37,3.85049,57.091,14.4591,7.8557,12.1389,1.16014
6164.23,3.78988,57.4415,15.9545,8.58609,13.4471,1.20288
5361.34,3.72927,57.7417,17.623,9.40605,14.9029,1.24608
4663.02,3.66867,58.063,19.4491,10.2883,16.5051,1.2889
4055.65,3.60806,58.4175,21.4463,11.232,18.2698,1.33135
3527.4,3.54745,58.7078,23.6522,12.285,20.2115,1.37387
3067.95,3.48685,59.0097,26.0239,13.3995,22.3091,1.41537
2668.35,3.42624,59.2685,28.7103,14.6714,24.6785,1.45804
2320.79,3.36564,59.5671,31.6231,16.018,27.2662,1.5
2018.51,3.30503,59.8451,34.8122,17.4875,30.1011,1.54173
1755.6,3.24443,60.1098,38.3662,19.1194,33.2628,1.58395
1526.93,3.18382,60.363,42.2849,20.91,36.753,1.62619
1328.04,3.12321,60.6258,46.6472,22.881,40.65,1.66883
1155.06,3.0626,61.0082,51.2812,24.8552,44.8551,1.70996
1004.62,3.002,61.1834,56.5237,27.2449,49.5242,1.75223
873.764,2.94139,61.4565,62.3305,29.7831,54.7545,1.7947
759.956,2.88079,61.578,68.9149,32.8009,60.6083,1.83831
660.971,2.82018,61.8301,75.99,35.8739,66.9891,1.88076
574.878,2.75958,62.092,83.9178,39.2779,74.1582,1.92385
500,2.69897,62.3092,92.7,43.0777,82.0828,1.96708
434.875,2.63836,62.5611,102.344,47.1602,90.8302,2.01006
378.232,2.57776,62.7753,112.962,51.6782,100.448,2.05293
328.967,2.51715,62.9649,124.729,56.6939,111.1,2.09597
286.118,2.45655,63.1706,137.936,62.2553,123.088,2.13968
248.851,2.39594,63.3644,152.557,68.3937,136.367,2.18343
216.438,2.33533,63.5244,168.758,75.2351,151.06,2.22726
188.247,2.27473,63.7997,186.784,82.4673,167.593,2.27134
163.727,2.21412,63.9702,206.607,90.6671,185.65,2.31515
142.402,2.15352,64.2106,228.65,99.4775,205.876,2.35917
123.854,2.09291,64.3896,252.487,109.137,227.681,2.40224
107.722,2.0323,64.5769,277.815,119.266,250.912,2.44376
93.6909,1.9717,64.8536,308.047,130.899,278.852,2.48862
81.4875,1.91109,64.9528,341.82,144.714,309.675,2.5338
70.8737,1.85049,65.252,378.834,158.59,344.041,2.57845
61.6423,1.78988,65.4202,422.155,175.6,383.901,2.62547
53.6134,1.72927,65.8107,467.642,191.618,426.582,2.66991
46.6302,1.66867,66.1391,518.852,209.885,474.506,2.71504
40.5565,1.60806,66.4995,577.15,230.143,529.279,2.76129
35.274,1.54745,66.8503,639.818,251.535,588.301,2.80606
30.6795,1.48685,67.1862,710.613,275.531,655.021,2.85163
26.6835,1.42624,67.5635,791.267,301.995,731.37,2.89832
23.2079,1.36564,67.9583,881.656,330.868,817.217,2.9453
20.1851,1.30503,68.3077,982.783,363.258,913.185,2.99246
17.556,1.24443,68.7145,1093.47,396.948,1018.88,3.03881
15.2693,1.18382,69.0719,1219,435.421,1138.58,3.086
13.2804,1.12321,69.474,1358.38,476.29,1272.14,3.13302
11.5506,1.0626,69.8715,1518.42,522.527,1425.68,3.18139
10.0462,1.002,70.3129,1699.38,572.49,1600.04,3.23029
8.73764,0.941394,70.6825,1899.99,628.522,1793.02,3.27875
7.59956,0.880788,70.9436,2125.51,693.977,2009.03,3.32746
6.60971,0.820182,71.3684,2383.41,761.456,2258.51,3.3772
5.74879,0.759576,71.7673,2666.51,834.288,2532.63,3.42594
5,0.69897,72.1599,2993.25,917.014,2849.32,3.47614
4.34874,0.638363,72.4864,3358.36,1010.64,3202.68,3.52613
3.78232,0.577758,72.778,3775.94,1117.96,3606.64,3.57703
3.28967,0.517152,73.2083,4238.71,1224.54,4057.98,3.62723
2.86118,0.456545,73.4769,4761.7,1354.23,4565.06,3.67776
2.48851,0.395939,73.7462,5377.83,1505.21,5162.89,3.73061
2.16438,0.335334,74.0526,6047.51,1661.58,5814.77,3.78158
1.88247,0.274728,74.6042,6665.83,1769.68,6426.62,3.82385
1.63727,0.21412,74.7024,7558.18,1994.1,7290.38,3.87842
1.42402,0.153516,74.8461,8563.76,2238.67,8265.98,3.93266
1.23854,0.09291,75.1366,9613.21,2465.94,9291.56,3.98287
1.07722,0.0323044,75.0452,10993.1,2836.85,10620.8,4.04112
0.936909,-0.0283026,75.3167,12311.7,3120.73,11909.6,4.09032
0.814875,-0.088909,75.2793,13836.8,3516.03,13382.6,4.14104
0.708737,-0.149515,75.3728,15686.2,3961.21,15177.8,4.19552
0.616423,-0.210121,75.7108,17536,4328.17,16993.5,4.24393
0.536134,-0.270727,75.8222,19887,4870.97,19281.3,4.29857
0.466302,-0.331333,76.0592,22386.1,5393.25,21726.7,4.34998
0.405565,-0.39194,76.1066,25417.5,6103.14,24673.9,4.40513
0.35274,-0.452545,76.1953,28746.3,6859.25,27916,4.45858
0.306795,-0.513152,76.2505,32695.2,7770.94,31758.3,4.51448
0.266835,-0.573757,76.2295,37154,8843.91,36086.1,4.57001
0.232079,-0.634364,76.3291,42077.3,9944.73,40885.2,4.62405
0.201851,-0.694969,76.2319,48177.5,11465.9,46793.2,4.68284
0.17556,-0.755574,76.3996,54252.3,12757.4,52731,4.73442
0.152693,-0.816181,76.2332,62630.5,14904.2,60831.3,4.79679
0.132804,-0.876789,76.1429,71771.9,17189.5,69683.1,4.85595
0.115506,-0.937395,76.0285,83070.2,20056.4,80612.6,4.91945
0.100462,-0.997998,76.0273,96362.6,23267.6,93511.3,4.98391
0.0873764,-1.05861,75.3272,113741,28810.5,110032,5.05592
0.0759956,-1.11921,75.1464,156585,40140.6,151352,5.19475
0.0660971,-1.17982,72.3481,422588,128143,402691,5.62592
0.0574878,-1.24042,71.74,1220690,382479,1159220,6.08661
0.05,-1.30103,64.3839,2959850,1279660,2668930,6.47127