File: membrane conductivity analysis/EIS data/Book24.csv
PVDF0.2-2(3),,,,,,
freq / Hz,Log(f / Hz),neg. Phase / бу,Z / Ohm,Z' / Ohm,Z'' / Ohm,Log(Z / Ohm)
50000,4.69897,50.9128,4.37318,2.7573,3.39441,0.640797
43487.4,4.63836,51.2144,5.16744,3.23693,4.028,0.713275
37823.2,4.57776,52.2981,5.92593,3.62402,4.68861,0.772757
32896.7,4.51715,52.0617,6.86521,4.22082,5.4144,0.836654
28611.8,4.45655,52.6596,7.75804,4.70563,6.16799,0.889752
24885.1,4.39594,52.9043,8.73985,5.27143,6.97116,0.941504
21643.8,4.33533,51.5393,10.0338,6.24081,7.85681,1.00147
18824.7,4.27473,52.6097,11.0061,6.68338,8.74456,1.04163
16372.7,4.21412,53.2467,12.1347,7.26107,9.72256,1.08403
14240.2,4.15352,53.668,13.3733,7.9232,10.7735,1.12624
12385.4,4.09291,54.0536,14.7362,8.65058,11.93,1.16839
10772.2,4.0323,54.2789,16.2418,9.48261,13.1862,1.21063
9369.09,3.9717,54.5789,17.836,10.3374,14.5348,1.2513
8148.75,3.91109,55.1161,19.5517,11.1819,16.0385,1.29118
7087.37,3.85049,55.6455,21.3598,12.0536,17.6338,1.3296
6164.23,3.78988,55.9395,23.4508,13.1341,19.4278,1.37016
5361.34,3.72927,56.2601,25.7217,14.2865,21.3894,1.4103
4663.02,3.66867,56.5423,28.1964,15.5453,23.524,1.45019
4055.65,3.60806,56.8278,30.9118,16.9136,25.8741,1.49012
3527.4,3.54745,57.0546,33.9054,18.4391,28.4531,1.53027
3067.95,3.48685,57.345,37.1801,20.0616,31.3032,1.57031
2668.35,3.42624,57.6813,40.7308,21.7758,34.4211,1.60992
2320.79,3.36564,57.9674,44.6918,23.7046,37.8874,1.65023
2018.51,3.30503,58.2401,48.9779,25.7801,41.644,1.69
1755.6,3.24443,58.5556,53.688,28.0074,45.8038,1.72988
1526.93,3.18382,58.8552,58.9514,30.4898,50.4544,1.77049
1328.04,3.12321,59.0341,64.763,33.3224,55.5326,1.81133
1155.06,3.0626,59.3834,71.2321,36.2779,61.3019,1.85268
1004.62,3.002,59.542,78.0905,39.5846,67.3141,1.8926
873.764,2.94139,59.8259,86.0016,43.227,74.3485,1.93451
759.956,2.88079,59.9889,94.4621,47.2468,81.7974,1.97526
660.971,2.82018,60.2709,103.935,51.5414,90.2553,2.01676
574.878,2.75958,60.4525,114.522,56.4757,99.6278,2.05889
500,2.69897,60.7557,125.578,61.349,109.572,2.09891
434.875,2.63836,60.9768,138.296,67.0961,120.929,2.14081
378.232,2.57776,61.1541,152.424,73.538,133.511,2.18305
328.967,2.51715,61.3356,167.796,80.4883,147.232,2.22478
286.118,2.45655,61.5014,184.928,88.2359,162.52,2.267
248.851,2.39594,61.6689,203.992,96.8076,179.558,2.30961
216.438,2.33533,61.8016,225.02,106.328,198.314,2.35222
188.247,2.27473,61.9751,248.253,116.643,219.144,2.39489
163.727,2.21412,62.1051,273.856,128.124,242.035,2.43752
142.402,2.15352,62.1662,302.084,141.046,267.135,2.48013
123.854,2.09291,62.3723,333.781,154.782,295.723,2.52346
107.722,2.0323,62.4218,368.208,170.465,326.373,2.56609
93.6909,1.9717,62.5528,406.174,187.218,360.453,2.60871
81.4875,1.91109,62.5988,448.383,206.355,398.077,2.65165
70.8737,1.85049,62.7229,494.631,226.687,439.628,2.69428
61.6423,1.78988,62.6732,548.209,251.664,487.03,2.73895
53.6134,1.72927,63.0876,604.101,273.432,538.677,2.78111
46.6302,1.66867,63.2728,665.937,299.501,594.787,2.82343
40.5565,1.60806,63.474,736.192,328.786,658.694,2.86699
35.274,1.54745,63.6347,811.307,360.295,726.915,2.90919
30.6795,1.48685,63.8747,895.255,394.213,803.789,2.95195
26.6835,1.42624,64.1557,990.108,431.614,891.08,2.99568
23.2079,1.36564,64.4169,1094.82,472.765,987.485,3.03934
20.1851,1.30503,64.6996,1211.93,517.934,1095.68,3.08348
17.556,1.24443,65.0087,1338.81,565.62,1213.46,3.12672
15.2693,1.18382,65.3812,1481.66,617.227,1346.97,3.17075
13.2804,1.12321,65.7346,1641.16,674.459,1496.17,3.21515
11.5506,1.0626,66.1371,1820.74,736.58,1665.1,3.26025
10.0462,1.002,66.5757,2021.75,803.719,1855.13,3.30573
8.73764,0.941394,66.9592,2245.69,878.933,2066.54,3.35135
7.59956,0.880788,67.3658,2489.72,958.16,2297.97,3.39615
6.60971,0.820182,67.7921,2775.04,1048.88,2569.18,3.44327
5.74879,0.759576,68.1971,3089.29,1147.4,2868.3,3.48986
5,0.69897,68.6838,3439.75,1250.4,3204.43,3.53653
4.34874,0.638363,69.0781,3834.57,1369.31,3581.75,3.58372
3.78232,0.577758,69.5148,4281.73,1498.46,4010.97,3.63162
3.28967,0.517152,69.964,4776.94,1636.63,4487.83,3.67915
2.86118,0.456545,70.2924,5343.25,1801.85,5030.27,3.72781
2.48851,0.395939,70.7354,5980.28,1973.09,5645.42,3.77672
2.16438,0.335334,71.0932,6678.5,2164.03,6318.17,3.82468
1.88247,0.274728,71.4637,7427.91,2361.37,7042.57,3.87087
1.63727,0.21412,71.7089,8339.12,2617.19,7917.78,3.92112
1.42402,0.153516,71.958,9342.42,2893.48,8883.05,3.97046
1.23854,0.09291,72.046,10626.8,3275.75,10109.4,4.0264
1.07722,0.0323044,72.4032,11822.5,3574.16,11269.3,4.07271
0.936909,-0.0283026,72.8551,13132.4,3871.28,12548.8,4.11834
0.814875,-0.088909,72.775,14728.1,4361.36,14067.5,4.16815
0.708737,-0.149515,72.9935,16563.3,4844.44,15839,4.21915
0.616423,-0.210121,73.2686,18609.4,5357.35,17821.5,4.26973
0.536134,-0.270727,73.4841,20930.5,5950.14,20066.9,4.32078
0.466302,-0.331333,73.6329,23651.1,6664.66,22692.6,4.37385
0.405565,-0.39194,73.8501,26504.3,7372.2,25458.4,4.42332
0.35274,-0.452545,74.0192,29779.7,8198.83,28628.9,4.47392
0.306795,-0.513152,74.2545,33386.6,9059.92,32133.8,4.52357
0.266835,-0.573757,74.1122,37999.8,10402.6,36548.2,4.57978
0.232079,-0.634364,74.4418,42454.3,11387,40898.7,4.62792
0.201851,-0.694969,74.2287,48640.9,13220.5,46809.8,4.687
0.17556,-0.755574,74.4379,54369.1,14586.3,52375.9,4.73535
0.152693,-0.816181,74.5333,61484.9,16396.7,59258.3,4.78877
0.132804,-0.876789,74.3714,70411.3,18968.9,67808.1,4.84764
0.115506,-0.937395,74.3356,80112,21630.4,77136.6,4.9037
0.100462,-0.997998,74.4312,90892.2,24395,87557.3,4.95853
0.0873764,-1.05861,74.3322,103563,27968.1,99714.9,5.0152
0.0759956,-1.11921,74.1272,119959,32809.3,115385,5.07903
0.0660971,-1.17982,73.896,138956,38544,133504,5.14288
0.0574878,-1.24042,73.7942,165651,46231.4,159069,5.21919
0.05,-1.30103,73.3002,213863,61455,204843,5.33014