File: membrane conductivity analysis/EIS data/Book21.csv
PES0.45-1(5),,,,,,
freq / Hz,Log(f / Hz),neg. Phase / бу,Z / Ohm,Z' / Ohm,Z'' / Ohm,Log(Z / Ohm)
50000,4.69897,48.9161,4.31883,2.83818,3.25531,0.635366
43487.4,4.63836,48.3704,5.01446,3.33117,3.74808,0.700224
37823.2,4.57776,47.8518,5.81001,3.89881,4.3076,0.764177
32896.7,4.51715,47.245,6.64227,4.5092,4.87717,0.822317
28611.8,4.45655,47.3831,7.41093,5.01789,5.45369,0.869873
24885.1,4.39594,48.0014,8.12952,5.43956,6.04154,0.910065
21643.8,4.33533,48.1418,8.9642,5.98172,6.67652,0.952512
18824.7,4.27473,48.3163,9.82494,6.53377,7.33753,0.99233
16372.7,4.21412,48.4612,10.7557,7.13241,8.05074,1.03164
14240.2,4.15352,48.6983,11.7242,7.73825,8.80774,1.06908
12385.4,4.09291,48.8779,12.7703,8.39858,9.61998,1.1062
10772.2,4.0323,49.0665,13.8944,9.10335,10.4968,1.14284
9369.09,3.9717,49.3118,15.0945,9.84071,11.4457,1.17882
8148.75,3.91109,49.5431,16.4088,10.6472,12.4853,1.21508
7087.37,3.85049,49.7466,17.8022,11.5032,13.5866,1.25047
6164.23,3.78988,50.032,19.2868,12.3891,14.7815,1.28526
5361.34,3.72927,50.1647,20.9123,13.3961,16.0584,1.3204
4663.02,3.66867,50.3953,22.6673,14.4501,17.4643,1.3554
4055.65,3.60806,50.6234,24.5974,15.6049,19.0136,1.39089
3527.4,3.54745,50.8206,26.6887,16.8606,20.6883,1.42633
3067.95,3.48685,51.0132,28.9214,18.1957,22.4803,1.46122
2668.35,3.42624,51.1547,31.3866,19.6863,24.4452,1.49674
2320.79,3.36564,51.371,33.9994,21.225,26.5605,1.53147
2018.51,3.30503,51.5049,36.8806,22.9562,28.865,1.5668
1755.6,3.24443,51.6586,39.8978,24.7504,31.2929,1.60095
1526.93,3.18382,51.8445,43.3102,26.757,34.0564,1.63659
1328.04,3.12321,51.9921,46.8575,28.8534,36.9202,1.67078
1155.06,3.0626,52.034,50.7759,31.237,40.0305,1.70566
1004.62,3.002,52.3057,55.0284,33.647,43.5431,1.74059
873.764,2.94139,52.416,59.8562,36.5078,47.4336,1.77711
759.956,2.88079,52.3434,64.6818,39.5159,51.2077,1.81078
660.971,2.82018,52.5792,70.2248,42.6731,55.7721,1.84649
574.878,2.75958,52.6661,76.1926,46.2077,60.5819,1.88191
500,2.69897,52.8106,82.3269,49.7627,65.5851,1.91554
434.875,2.63836,52.9555,89.2209,53.7498,71.2132,1.95047
378.232,2.57776,53.0561,96.7262,58.1356,77.3059,1.98554
328.967,2.51715,53.1653,104.889,62.882,83.9501,2.02073
286.118,2.45655,53.2946,113.767,67.9989,91.2095,2.05602
248.851,2.39594,53.3974,123.435,73.5998,99.0927,2.09144
216.438,2.33533,53.503,134.03,79.7182,107.745,2.1272
188.247,2.27473,53.6427,145.481,86.2436,117.161,2.16281
163.727,2.21412,53.7464,157.889,93.3693,127.323,2.19835
142.402,2.15352,53.8755,171.547,101.134,138.565,2.23438
123.854,2.09291,54.0298,186.305,109.429,150.781,2.27022
107.722,2.0323,54.1706,202.51,118.544,164.188,2.30645
93.6909,1.9717,54.3242,220.315,128.487,178.968,2.34304
81.4875,1.91109,54.4082,239.306,139.278,194.6,2.37895
70.8737,1.85049,54.5869,260.062,150.698,211.949,2.41508
61.6423,1.78988,54.7252,282.327,163.043,230.49,2.45075
53.6134,1.72927,54.9958,307.725,176.522,252.061,2.48816
46.6302,1.66867,55.2063,334.842,191.068,274.976,2.52484
40.5565,1.60806,55.4021,364.381,206.901,299.943,2.56156
35.274,1.54745,55.6351,396.082,223.573,326.949,2.59779
30.6795,1.48685,55.86,431.062,241.919,356.776,2.63454
26.6835,1.42624,56.1142,469.816,261.94,390.018,2.67193
23.2079,1.36564,56.3856,512.538,283.741,426.833,2.70973
20.1851,1.30503,56.6388,559.109,307.463,466.979,2.7475
17.556,1.24443,56.8827,608.649,332.538,509.776,2.78437
15.2693,1.18382,57.1849,664.175,359.937,558.188,2.82228
13.2804,1.12321,57.4576,724.036,389.476,610.357,2.85976
11.5506,1.0626,57.7169,790.935,422.441,668.672,2.89814
10.0462,1.002,58.0594,865.923,458.107,734.82,2.93748
8.73764,0.941394,58.3157,948.522,498.201,807.15,2.97705
7.59956,0.880788,58.5404,1036.89,541.152,884.48,3.01573
6.60971,0.820182,58.8105,1138.71,589.703,974.116,3.05641
5.74879,0.759576,58.9358,1247.27,643.591,1068.4,3.09596
5,0.69897,59.2307,1368.86,700.285,1176.17,3.13636
4.34874,0.638363,59.4003,1501.64,764.389,1292.53,3.17657
3.78232,0.577758,59.6175,1650.9,834.979,1424.18,3.21772
3.28967,0.517152,59.8569,1816.67,912.259,1571.01,3.25928
2.86118,0.456545,60.0302,1999.32,998.746,1731.99,3.30088
2.48851,0.395939,60.1106,2205.73,1099.17,1912.34,3.34355
2.16438,0.335334,60.2087,2415.98,1200.36,2096.69,3.38309
1.88247,0.274728,60.3088,2644.48,1309.87,2297.28,3.42234
1.63727,0.21412,60.292,2901.49,1437.92,2520.12,3.46262
1.42402,0.153516,60.1942,3197.23,1589.22,2774.29,3.50477
1.23854,0.09291,59.9617,3536.71,1770.4,3061.7,3.5486
1.07722,0.0323044,60.1418,3857.36,1920.41,3345.33,3.58629
0.936909,-0.0283026,59.9421,4247.65,2127.54,3676.42,3.62815
0.814875,-0.088909,59.1581,4697.76,2408.41,4033.43,3.67189
0.708737,-0.149515,59.0648,5162.4,2653.83,4428.05,3.71285
0.616423,-0.210121,59.0546,5664.9,2913.01,4858.55,3.75319
0.536134,-0.270727,58.9336,6235.33,3217.62,5340.99,3.79486
0.466302,-0.331333,58.7025,6871.84,3569.79,5871.86,3.83707
0.405565,-0.39194,58.3572,7586.05,3979.81,6458.27,3.88002
0.35274,-0.452545,58.0169,8354.39,4425.06,7086.23,3.92191
0.306795,-0.513152,57.6492,9191.28,4918.27,7764.68,3.96338
0.266835,-0.573757,57.1249,10129,5498.1,8506.86,4.00557
0.232079,-0.634364,56.4914,11170.5,6166.79,9313.97,4.04807
0.201851,-0.694969,55.8034,12336,6933.27,10203.3,4.09117
0.17556,-0.755574,54.6654,13614.4,7873.87,11106.4,4.134
0.152693,-0.816181,53.939,15008.2,8834.55,12132.5,4.17633
0.132804,-0.876789,52.7318,16491.7,9986.52,13124.3,4.21727
0.115506,-0.937395,51.4729,18226.4,11352.9,14258.8,4.2607
0.100462,-0.997998,50.1892,20115,12878.7,15451.6,4.30352
0.0873764,-1.05861,48.3145,22112.7,14705.9,16513.9,4.34464
0.0759956,-1.11921,47.4639,24900.2,16833.9,18347.7,4.3962
0.0660971,-1.17982,46.3538,28078.7,19380,20318.2,4.44838
0.0574878,-1.24042,45.1073,30914.9,21819.2,21901.1,4.49017
0.05,-1.30103,43.4161,34910.4,25358.3,23993.6,4.54295