File: membrane conductivity analysis/EIS data/Book6.csv
Sartorius_CelluloseNitrate0.45-1(2),,,,,,
freq / Hz,Log(f / Hz),neg. Phase / бу,Z / Ohm,Z' / Ohm,Z'' / Ohm,Log(Z / Ohm)
50000,4.69897,51.2184,3.42253,2.14371,2.668,0.534347
43487.4,4.63836,50.3821,4.0125,2.55863,3.09089,0.603415
37823.2,4.57776,49.9711,4.68601,3.01392,3.58817,0.670803
32896.7,4.51715,50.0303,5.35942,3.4428,4.10738,0.729118
28611.8,4.45655,47.1329,6.43076,4.37484,4.71332,0.808262
24885.1,4.39594,46.2105,7.32663,5.0701,5.289,0.864904
21643.8,4.33533,46.7027,8.04072,5.5142,5.85207,0.905295
18824.7,4.27473,47.0131,8.80586,6.00411,6.44158,0.944772
16372.7,4.21412,47.1139,9.67413,6.58366,7.08831,0.985612
14240.2,4.15352,47.6207,10.5164,7.08845,7.76849,1.02187
12385.4,4.09291,47.9157,11.4257,7.65775,8.47968,1.05788
10772.2,4.0323,48.2628,12.432,8.27615,9.27681,1.09454
9369.09,3.9717,48.6087,13.4888,8.91876,10.1194,1.12997
8148.75,3.91109,48.9767,14.6409,9.60977,11.0457,1.16557
7087.37,3.85049,49.3584,15.8672,10.3347,12.04,1.2005
6164.23,3.78988,49.6458,17.1901,11.1308,13.0998,1.23528
5361.34,3.72927,49.9837,18.6492,11.9915,14.2827,1.27066
4663.02,3.66867,50.3231,20.1765,12.8818,15.529,1.30485
4055.65,3.60806,50.6651,21.8851,13.8719,16.9271,1.34015
3527.4,3.54745,50.9833,23.7281,14.938,18.4358,1.37526
3067.95,3.48685,51.2653,25.7211,16.0941,20.0637,1.41029
2668.35,3.42624,51.5936,27.8862,17.3239,21.8523,1.44539
2320.79,3.36564,51.9038,30.2156,18.6425,23.7789,1.48023
2018.51,3.30503,52.2248,32.7672,20.0721,25.8999,1.51544
1755.6,3.24443,52.5324,35.566,21.6352,28.2286,1.55104
1526.93,3.18382,52.8527,38.6191,23.3207,30.7827,1.5868
1328.04,3.12321,53.0589,41.9613,25.2185,33.5378,1.62285
1155.06,3.0626,53.2026,45.5477,27.2825,36.4727,1.65847
1004.62,3.002,53.5347,49.4606,29.3962,39.777,1.69426
873.764,2.94139,53.5847,53.6839,31.8686,43.2014,1.72984
759.956,2.88079,53.7329,58.4064,34.5503,47.0912,1.76646
660.971,2.82018,53.8487,63.5531,37.4912,51.3168,1.80314
574.878,2.75958,54.0084,69.1139,40.6159,55.9203,1.83957
500,2.69897,54.0996,75.0597,44.0134,60.8011,1.87541
434.875,2.63836,54.1879,81.6316,47.7651,66.1984,1.91186
378.232,2.57776,54.2796,88.8323,51.863,72.1207,1.94857
328.967,2.51715,54.3518,96.6797,56.3457,78.563,1.98534
286.118,2.45655,54.3823,105.088,61.2007,85.4284,2.02155
248.851,2.39594,54.4153,114.325,66.5262,92.9753,2.05814
216.438,2.33533,54.4182,124.253,72.2985,101.053,2.09431
188.247,2.27473,54.4667,135.277,78.62,110.086,2.13122
163.727,2.21412,54.4311,147.062,85.5431,119.622,2.1675
142.402,2.15352,54.4355,159.995,93.0561,130.15,2.20411
123.854,2.09291,54.4393,174.011,101.199,141.558,2.24058
107.722,2.0323,54.4496,189.221,110.017,153.951,2.27697
93.6909,1.9717,54.513,205.733,119.432,167.518,2.3133
81.4875,1.91109,54.3687,223.576,130.248,181.718,2.34943
70.8737,1.85049,54.3653,242.639,141.365,197.204,2.38496
61.6423,1.78988,54.4799,264.238,153.519,215.067,2.422
53.6134,1.72927,54.4793,286.587,166.506,233.255,2.45726
46.6302,1.66867,54.5893,311.236,180.34,253.663,2.49309
40.5565,1.60806,54.6774,338.314,195.606,276.034,2.52932
35.274,1.54745,54.854,367.153,211.356,300.217,2.56485
30.6795,1.48685,55.0164,398.899,228.706,326.825,2.60086
26.6835,1.42624,55.171,433.777,247.742,356.071,2.63727
23.2079,1.36564,55.3649,472.404,268.489,388.688,2.67431
20.1851,1.30503,55.5914,514.935,290.985,424.836,2.71175
17.556,1.24443,55.854,560.387,314.548,463.782,2.74849
15.2693,1.18382,56.1854,612.075,340.624,508.538,2.7868
13.2804,1.12321,56.5768,669.002,368.499,558.366,2.82543
11.5506,1.0626,56.8542,731.656,400.049,612.602,2.86431
10.0462,1.002,57.1455,800.384,434.215,672.363,2.9033
8.73764,0.941394,57.4507,873.69,470.067,736.459,2.94136
7.59956,0.880788,57.6913,953.366,509.556,805.767,2.97926
6.60971,0.820182,58.0008,1044.65,553.567,885.92,3.01897
5.74879,0.759576,58.3217,1143.56,600.541,973.183,3.05826
5,0.69897,58.4415,1254.59,656.615,1069.05,3.0985
4.34874,0.638363,58.6785,1372.53,713.497,1172.51,3.13752
3.78232,0.577758,58.8307,1503.52,778.176,1286.48,3.17711
3.28967,0.517152,59.0181,1653.87,851.355,1417.91,3.2185
2.86118,0.456545,59.3245,1818.33,927.667,1563.89,3.25967
2.48851,0.395939,59.6041,2012.97,1018.51,1736.29,3.30384
2.16438,0.335334,59.7645,2225.97,1120.9,1923.15,3.34752
1.88247,0.274728,59.9206,2436.41,1221.13,2108.3,3.38675
1.63727,0.21412,59.715,2689.3,1356.22,2322.29,3.42964
1.42402,0.153516,59.9141,2940.51,1474.07,2544.35,3.46842
1.23854,0.09291,59.8418,3233.1,1624.27,2795.47,3.50962
1.07722,0.0323044,59.7662,3565.8,1795.49,3080.77,3.55216
0.936909,-0.0283026,59.7691,3904.48,1965.85,3373.48,3.59156
0.814875,-0.088909,59.2416,4293.26,2195.66,3689.33,3.63279
0.708737,-0.149515,59.2731,4712.73,2407.95,4051.12,3.67327
0.616423,-0.210121,59.1473,5206.16,2669.89,4469.43,3.71652
0.536134,-0.270727,59.0799,5745.48,2952.27,4928.96,3.75933
0.466302,-0.331333,59.1119,6385.24,3277.94,5479.63,3.80518
0.405565,-0.39194,58.8051,7017.84,3634.89,6003.13,3.8462
0.35274,-0.452545,58.904,7890.52,4075.25,6756.67,3.89711
0.306795,-0.513152,58.5498,8744.56,4562.54,7459.93,3.94174
0.266835,-0.573757,57.9975,9626.25,5101.5,8163.3,3.98346
0.232079,-0.634364,57.7768,10591.9,5647.79,8960.47,4.02497
0.201851,-0.694969,57.4381,11824.8,6364.22,9966.05,4.07279
0.17556,-0.755574,57.0168,13240.1,7207.84,11106.2,4.12189
0.152693,-0.816181,56.461,14537.5,8032.01,12117.1,4.16249
0.132804,-0.876789,54.1406,15774.1,9240.45,12784.2,4.19794
0.115506,-0.937395,53.9619,17887.9,10523.9,14464.6,4.25256
0.100462,-0.997998,53.2017,20100.3,12040.1,16095.3,4.3032
0.0873764,-1.05861,47.7333,23530.9,15826.5,17413.4,4.37164
0.0759956,-1.11921,63.8409,43332,19103.6,38893.6,4.63681
0.0660971,-1.17982,56.0823,51831.5,28922,43011.8,4.71459
0.0574878,-1.24042,56.2973,53578.1,29729.6,44573.1,4.72899
0.05,-1.30103,57.6968,64592.9,34518.4,54596,4.81018