File: membrane conductivity analysis/EIS data/Book22.csv
I-16-1,,,,,,
freq / Hz,Log(f / Hz),neg. Phase / бу,Z / Ohm,Z' / Ohm,Z'' / Ohm,Log(Z / Ohm)
50000,4.69897,13.103,17.2522,16.8031,3.91113,1.23684
43487.4,4.63836,14.2535,16.7139,16.1994,4.11516,1.22308
37823.2,4.57776,15.5456,16.5509,15.9454,4.43573,1.21882
32896.7,4.51715,17.0275,16.2806,15.5669,4.76747,1.21167
28611.8,4.45655,18.3607,16.3012,15.4714,5.13486,1.21222
24885.1,4.39594,19.5468,16.6095,15.6523,5.55716,1.22036
21643.8,4.33533,20.7736,16.9517,15.8497,6.01239,1.22921
18824.7,4.27473,21.9402,17.4103,16.1494,6.50515,1.24081
16372.7,4.21412,23.0504,18.0127,16.5746,7.05271,1.25558
14240.2,4.15352,24.108,18.6707,17.0422,7.62619,1.27116
12385.4,4.09291,25.2011,19.437,17.587,8.2762,1.28863
10772.2,4.0323,26.382,20.2183,18.1126,8.98407,1.30574
9369.09,3.9717,26.4367,21.9253,19.6325,9.76136,1.34095
8148.75,3.91109,28.0296,22.5698,19.9225,10.6062,1.35353
7087.37,3.85049,29.4603,23.4565,20.4235,11.5364,1.37026
6164.23,3.78988,30.7432,24.5154,21.0702,12.5321,1.38944
5361.34,3.72927,31.2987,26.1927,22.3809,13.6071,1.41818
4663.02,3.66867,32.6119,27.3783,23.0618,14.7554,1.43741
4055.65,3.60806,34.1752,28.5681,23.635,16.0474,1.45588
3527.4,3.54745,35.3498,30.1604,24.5999,17.4498,1.47944
3067.95,3.48685,36.4419,31.8936,25.6571,18.945,1.5037
2668.35,3.42624,37.5543,33.7647,26.7678,20.58,1.52846
2320.79,3.36564,38.5726,35.8662,28.0409,22.3628,1.55469
2018.51,3.30503,39.5509,38.2295,29.4772,24.3432,1.5824
1755.6,3.24443,40.4294,40.6886,30.9724,26.387,1.60947
1526.93,3.18382,41.3179,43.412,32.6049,28.6622,1.63761
1328.04,3.12321,42.157,46.436,34.4234,31.1662,1.66685
1155.06,3.0626,42.9144,49.5988,36.3247,33.7721,1.69547
1004.62,3.002,43.7125,53.1456,38.4145,36.7258,1.72547
873.764,2.94139,44.3606,56.9407,40.71,39.8114,1.75542
759.956,2.88079,45.0596,60.903,43.0201,43.1097,1.78464
660.971,2.82018,45.755,65.4406,45.6597,46.8792,1.81585
574.878,2.75958,46.3291,70.257,48.5135,50.8181,1.84669
500,2.69897,46.8926,75.3519,51.4931,55.0124,1.87709
434.875,2.63836,47.4192,81.0337,54.8297,59.6671,1.90867
378.232,2.57776,47.9153,87.1426,58.4055,64.6733,1.94023
328.967,2.51715,48.4222,93.7636,62.225,70.1403,1.97203
286.118,2.45655,48.9294,100.874,66.2728,76.0487,2.00378
248.851,2.39594,49.3603,108.696,70.7936,82.4806,2.03621
216.438,2.33533,49.7752,117.169,75.6665,89.4605,2.06881
188.247,2.27473,50.1249,126.438,81.0614,97.034,2.10188
163.727,2.21412,50.474,136.443,86.8365,105.244,2.13495
142.402,2.15352,50.8329,147.159,92.9432,114.093,2.16779
123.854,2.09291,51.2362,159.109,99.6202,124.063,2.20169
107.722,2.0323,51.5774,171.981,106.879,134.738,2.23548
93.6909,1.9717,51.9227,185.983,114.7,146.402,2.26947
81.4875,1.91109,52.1685,201.06,123.319,158.801,2.30333
70.8737,1.85049,52.5315,217.354,132.222,172.511,2.33717
61.6423,1.78988,52.9025,235.067,141.786,187.492,2.37119
53.6134,1.72927,53.2413,255.15,152.694,204.417,2.4068
46.6302,1.66867,53.6486,276.746,164.037,222.89,2.44208
40.5565,1.60806,54.0175,300.245,176.406,242.957,2.47748
35.274,1.54745,54.4989,327.222,190.024,266.392,2.51484
30.6795,1.48685,54.8853,356.21,204.897,291.381,2.55171
26.6835,1.42624,55.3643,388.558,220.84,319.699,2.58946
23.2079,1.36564,55.9605,428.381,239.793,354.979,2.63183
20.1851,1.30503,56.4442,469.186,259.342,390.995,2.67135
17.556,1.24443,56.8737,510.925,279.214,427.883,2.70836
15.2693,1.18382,57.2626,557.102,301.275,468.611,2.74593
13.2804,1.12321,57.6555,608.273,325.431,513.897,2.7841
11.5506,1.0626,58.0415,664.275,351.604,563.592,2.82235
10.0462,1.002,58.3749,727.832,381.645,619.747,2.86203
8.73764,0.941394,58.688,795.822,413.588,679.91,2.90082
7.59956,0.880788,58.9899,871.207,448.836,746.691,2.94012
6.60971,0.820182,59.2601,956.413,488.862,822.034,2.98065
5.74879,0.759576,59.4736,1047.48,532.051,902.293,3.02015
5,0.69897,59.6267,1150.45,581.705,992.553,3.06087
4.34874,0.638363,59.6954,1260.11,635.848,1087.92,3.10041
3.78232,0.577758,59.659,1383.41,698.825,1193.93,3.14095
3.28967,0.517152,59.6875,1522.34,768.351,1314.22,3.18251
2.86118,0.456545,59.6701,1672.57,844.613,1443.65,3.22338
2.48851,0.395939,59.5198,1839.79,933.217,1585.54,3.26477
2.16438,0.335334,59.2506,2020.56,1033.08,1736.49,3.30547
1.88247,0.274728,59.1468,2213.16,1135,1899.97,3.34501
1.63727,0.21412,58.6403,2445.73,1272.78,2088.45,3.38841
1.42402,0.153516,58.3065,2683.12,1409.65,2282.99,3.42864
1.23854,0.09291,57.9155,2943.73,1563.62,2494.12,3.4689
1.07722,0.0323044,57.1078,3247.79,1763.74,2727.15,3.51159
0.936909,-0.0283026,56.3981,3563.04,1971.86,2967.67,3.55182
0.814875,-0.088909,55.1846,3900.53,2226.95,3202.32,3.59112
0.708737,-0.149515,54.1327,4274.48,2504.46,3463.94,3.63088
0.616423,-0.210121,53.2897,4657.85,2784.32,3734.05,3.66819
0.536134,-0.270727,52.1744,5083.01,3117.21,4014.97,3.70612
0.466302,-0.331333,50.9667,5545.66,3492.5,4307.76,3.74395
0.405565,-0.39194,49.7584,6010.13,3882.62,4587.69,3.77888
0.35274,-0.452545,48.5998,6516.21,4309.26,4887.87,3.814
0.306795,-0.513152,47.1468,7015.82,4771.62,5143.29,3.84608
0.266835,-0.573757,45.7364,7551.51,5270.65,5407.91,3.87803
0.232079,-0.634364,44.3322,8102.12,5795.45,5661.9,3.9086
0.201851,-0.694969,42.8669,8623.16,6320.22,5866.32,3.93567
0.17556,-0.755574,41.6035,9197.63,6877.6,6106.97,3.96368
0.152693,-0.816181,40.1984,9816.01,7497.6,6335.61,3.99193
0.132804,-0.876789,38.8769,10371.7,8074.35,6509.81,4.01585
0.115506,-0.937395,37.6776,11049.8,8745.51,6753.84,4.04335
0.100462,-0.997998,36.6828,11732.1,9408.62,7008.59,4.06938
0.0873764,-1.05861,35.3859,12550,10231.7,7267.49,4.09864
0.0759956,-1.11921,34.3989,13364.1,11027,7550.05,4.12594
0.0660971,-1.17982,34.7059,15592.9,12818.7,8878.07,4.19293
0.0574878,-1.24042,34.5765,22105.1,18200.7,12544.8,4.34449
0.05,-1.30103,31.9142,23570.2,20007.3,12460.4,4.37236