File: membrane conductivity analysis/EIS data/Book19.csv
PES0.45-3(5),,,,,,
freq / Hz,Log(f / Hz),neg. Phase / бу,Z / Ohm,Z' / Ohm,Z'' / Ohm,Log(Z / Ohm)
50000,4.69897,56.7401,2.63065,1.44275,2.19973,0.420063
43487.4,4.63836,53.3629,3.08479,1.84083,2.47533,0.489226
37823.2,4.57776,51.7493,3.58914,2.22205,2.81858,0.55499
32896.7,4.51715,50.7874,4.14138,2.61818,3.20877,0.617145
28611.8,4.45655,48.1124,4.94384,3.30086,3.68047,0.694064
24885.1,4.39594,45.0859,5.87876,4.15067,4.16314,0.769286
21643.8,4.33533,47.6293,6.16293,4.15335,4.55318,0.789787
18824.7,4.27473,48.6983,6.65992,4.39571,5.00323,0.823469
16372.7,4.21412,49.2921,7.23712,4.72007,5.48606,0.859566
14240.2,4.15352,49.9984,7.86511,5.05576,6.02488,0.895705
12385.4,4.09291,50.3001,8.58568,5.48424,6.60583,0.933775
10772.2,4.0323,50.4761,9.34807,5.94912,7.21072,0.970722
9369.09,3.9717,50.747,10.1802,6.44149,7.88316,1.00776
8148.75,3.91109,50.9937,11.0735,6.96971,8.60494,1.04428
7087.37,3.85049,51.3042,12.0259,7.51841,9.3859,1.08012
6164.23,3.78988,51.5235,13.0778,8.13692,10.2381,1.11653
5361.34,3.72927,51.9641,14.1611,8.72542,11.1536,1.1511
4663.02,3.66867,52.2378,15.3918,9.42572,12.1681,1.18729
4055.65,3.60806,52.5186,16.7305,10.1806,13.2765,1.22351
3527.4,3.54745,52.796,18.1938,11.001,14.4912,1.25992
3067.95,3.48685,53.0925,19.7393,11.8539,15.7836,1.29533
2668.35,3.42624,53.3677,21.4475,12.7973,17.2113,1.33138
2320.79,3.36564,53.6575,23.2956,13.8052,18.7643,1.36727
2018.51,3.30503,53.9709,25.3384,14.904,20.4917,1.40378
1755.6,3.24443,54.155,27.5527,16.1347,22.3343,1.44016
1526.93,3.18382,54.4874,29.9902,17.4208,24.4117,1.47698
1328.04,3.12321,54.6175,32.6513,18.9061,26.6207,1.5139
1155.06,3.0626,54.8556,35.4949,20.4322,29.0243,1.55017
1004.62,3.002,55.0826,38.6553,22.1262,31.6965,1.58721
873.764,2.94139,55.3456,42.111,23.9454,34.6404,1.6244
759.956,2.88079,55.4244,45.9606,26.0823,37.8429,1.66239
660.971,2.82018,55.5791,50.1591,28.3533,41.3766,1.70035
574.878,2.75958,55.731,54.6724,30.7849,45.1814,1.73777
500,2.69897,55.8292,59.6363,33.4954,49.3411,1.77551
434.875,2.63836,55.96,65.1088,36.4461,53.9522,1.81364
378.232,2.57776,56.0433,71.052,39.6872,58.9348,1.85158
328.967,2.51715,56.1288,77.5853,43.2404,64.4185,1.88978
286.118,2.45655,56.1827,84.6487,47.1109,70.3276,1.92762
248.851,2.39594,56.1636,92.4725,51.4909,76.8106,1.96601
216.438,2.33533,56.0862,102.339,57.0995,84.9289,2.01004
188.247,2.27473,55.9781,111.168,62.1996,92.1387,2.04598
163.727,2.21412,55.7683,116.382,65.4697,96.2213,2.06589
142.402,2.15352,55.6347,126.18,71.2243,104.156,2.10099
123.854,2.09291,55.2015,132.728,75.7467,108.991,2.12296
107.722,2.0323,55.0206,140.564,80.5826,115.172,2.14787
93.6909,1.9717,54.8982,151.127,86.9029,123.642,2.17934
81.4875,1.91109,54.6563,163.37,94.5065,133.261,2.21317
70.8737,1.85049,54.5112,176.157,102.267,143.432,2.2459
61.6423,1.78988,54.3288,190.959,111.354,155.131,2.28094
53.6134,1.72927,54.2651,206.858,120.812,167.912,2.31567
46.6302,1.66867,54.1239,224.206,131.392,181.671,2.35065
40.5565,1.60806,53.9754,242.959,142.892,196.497,2.38553
35.274,1.54745,53.8522,263.072,155.178,212.43,2.42007
30.6795,1.48685,53.7314,284.965,168.577,229.754,2.45479
26.6835,1.42624,53.6043,309.316,183.535,248.98,2.4904
23.2079,1.36564,53.4534,335.269,199.645,269.346,2.52539
20.1851,1.30503,53.3232,363.665,217.217,291.666,2.5607
17.556,1.24443,53.1739,393.683,235.969,315.127,2.59515
15.2693,1.18382,53.0492,426.828,256.579,341.101,2.63025
13.2804,1.12321,52.8809,462.824,279.302,369.048,2.66542
11.5506,1.0626,52.7085,501.194,303.659,398.732,2.70001
10.0462,1.002,52.5646,543.3,330.254,431.402,2.73504
8.73764,0.941394,52.4231,587.361,358.188,465.504,2.76891
7.59956,0.880788,52.1984,634.803,389.089,501.581,2.80264
6.60971,0.820182,52.0572,687.926,422.988,542.516,2.83754
5.74879,0.759576,51.8687,744.07,459.438,585.283,2.87161
5,0.69897,51.7465,805.768,498.885,632.753,2.90621
4.34874,0.638363,51.6228,870.337,540.337,682.292,2.93969
3.78232,0.577758,51.5858,941.445,584.96,737.659,2.97379
3.28967,0.517152,51.4967,1021.85,636.165,799.673,3.00939
2.86118,0.456545,51.4122,1097.78,684.702,858.087,3.04052
2.48851,0.395939,51.5281,1190.3,740.52,931.899,3.07566
2.16438,0.335334,51.4125,1282.15,799.685,1002.2,3.10794
1.88247,0.274728,51.5041,1382.93,860.815,1082.35,3.1408
1.63727,0.21412,51.6936,1490.79,924.088,1169.83,3.17342
1.42402,0.153516,51.7357,1613.8,999.408,1267.1,3.20785
1.23854,0.09291,51.9293,1749.5,1078.8,1377.3,3.24291
1.07722,0.0323044,52.0186,1899.83,1169.17,1497.47,3.27871
0.936909,-0.0283026,51.788,2064.74,1277.19,1622.32,3.31487
0.814875,-0.088909,51.4234,2240.33,1396.98,1751.43,3.35031
0.708737,-0.149515,51.9371,2428.23,1497.07,1911.83,3.38529
0.616423,-0.210121,51.9185,2662.21,1642,2095.51,3.42524
0.536134,-0.270727,51.8944,2902.69,1791.28,2284.05,3.4628
0.466302,-0.331333,51.914,3172.05,1956.66,2496.67,3.50134
0.405565,-0.39194,51.6172,3453.27,2144.18,2706.95,3.53823
0.35274,-0.452545,51.3984,3763.96,2348.34,2941.55,3.57564
0.306795,-0.513152,51.0289,4111.66,2585.94,3196.67,3.61402
0.266835,-0.573757,50.3401,4473.55,2855.15,3443.94,3.65065
0.232079,-0.634364,50.0109,4845.59,3113.98,3712.53,3.68535
0.201851,-0.694969,48.9355,5298.81,3480.83,3995.15,3.72418
0.17556,-0.755574,47.9985,5765.29,3857.85,4284.35,3.76082
0.152693,-0.816181,47.7202,6247.76,4203.19,4622.53,3.79572
0.132804,-0.876789,45.3242,6814.97,4791.57,4846.1,3.83346
0.115506,-0.937395,43.814,7395.32,5336.4,5119.92,3.86896
0.100462,-0.997998,42.3589,7864.19,5811.16,5298.68,3.89565
0.0873764,-1.05861,40.7075,8453.25,6407.98,5513.19,3.92702
0.0759956,-1.11921,39.2445,9132.47,7072.67,5777.49,3.96059
0.0660971,-1.17982,37.1863,9674.55,7707.47,5847.39,3.98563
0.0574878,-1.24042,34.9802,10370.2,8496.86,5945.19,4.01579
0.05,-1.30103,33.362,10860.8,9071.07,5972.64,4.03586